# Flux/energy over surface of 1.6e-05 1.6e-05 1.6e-05 
#wavelength	W[flux_ref]	W[flux_inc]	W[flux_tra]
0.45	0.00625819	0.120615	0.11382
0.45283	0.00768479	0.131549	0.123339
0.455696	0.00947007	0.143364	0.133406
0.458599	0.0116802	0.15633	0.144013
0.461538	0.0143919	0.169857	0.155154
0.464516	0.0176918	0.185166	0.166809
0.467532	0.0216797	0.201139	0.178957
0.470588	0.0264682	0.218606	0.191566
0.473684	0.032182	0.237387	0.204593
0.476821	0.0389599	0.257254	0.217981
0.48	0.0469538	0.279242	0.231677
0.483221	0.0563244	0.302131	0.245632
0.486486	0.0672414	0.327407	0.259762
0.489796	0.0798823	0.354092	0.274009
0.493151	0.0944319	0.382651	0.288294
0.496552	0.111074	0.413626	0.302541
0.5	0.130003	0.445807	0.316673
0.503496	0.151413	0.4816	0.330604
0.507042	0.175503	0.51878	0.344256
0.510638	0.20248	0.558939	0.357527
0.514286	0.232549	0.601711	0.370353
0.517986	0.265931	0.646642	0.382628
0.521739	0.302842	0.695639	0.394275
0.525547	0.343489	0.746425	0.405236
0.529412	0.388099	0.801651	0.415432
0.533333	0.436867	0.859545	0.424819
0.537313	0.489997	0.920887	0.433343
0.541353	0.547665	0.986581	0.441001
0.545455	0.610031	1.05454	0.447778
0.549618	0.677266	1.12875	0.453658
0.553846	0.749503	1.20549	0.45864
0.55814	0.826858	1.2873	0.462749
0.5625	0.909476	1.37356	0.465994
0.566929	0.997486	1.46351	0.46839
0.571429	1.09099	1.56002	0.469963
0.576	1.19013	1.65961	0.470749
0.580645	1.29503	1.76612	0.470772
0.585366	1.40582	1.87694	0.470097
0.590164	1.52264	1.99311	0.468771
0.595041	1.64561	2.11585	0.466863
0.6	1.77481	2.24226	0.464445
0.605042	1.91024	2.37752	0.461577
0.610169	2.0521	2.51676	0.45835
0.615385	2.20039	2.66304	0.454878
0.62069	2.35513	2.8156	0.451165
0.626087	2.51634	2.9734	0.447266
0.631579	2.6841	3.13969	0.443311
0.637168	2.85834	3.31051	0.439306
0.642857	3.03921	3.48986	0.435336
0.648649	3.22668	3.67498	0.431409
0.654545	3.42079	3.86672	0.427612
0.66055	3.62157	4.0662	0.424018
0.666667	3.82905	4.2707	0.420655
0.672897	4.04327	4.4844	0.417623
0.679245	4.26419	4.70332	0.414897
0.685714	4.49169	4.92958	0.412469
0.692308	4.72571	5.16261	0.410418
0.699029	4.96613	5.40155	0.408941
0.705882	5.21271	5.64809	0.407819
0.712871	5.46561	5.90013	0.407153
0.72	5.72393	6.1589	0.406902
0.727273	5.98859	6.42355	0.40716
0.734694	6.25847	6.69385	0.40782
0.742268	6.53385	6.96985	0.408995
0.75	6.81431	7.25143	0.41048
0.757895	7.09963	7.53731	0.412407
0.765957	7.38959	7.8287	0.41483
0.774194	7.68382	8.12373	0.417652
0.782609	7.98218	8.42294	0.420872
0.791209	8.28393	8.72649	0.424443
0.8	8.58887	9.0311	0.428254
0.808989	8.89633	9.34093	0.432302
0.818182	9.20557	9.64987	0.436496
0.827586	9.51682	9.96227	0.440908
0.837209	9.82853	10.2756	0.44538
0.847059	10.1407	10.5876	0.449889
0.857143	10.4528	10.9042	0.454471
0.86747	10.764	11.2123	0.459061
0.878049	11.0737	11.5247	0.463617
0.888889	11.3812	11.8316	0.468221
0.9	11.6863	12.136	0.472496
0.911392	11.9877	12.4403	0.476512
0.923077	12.2846	12.7328	0.480651
0.935065	12.5771	13.0287	0.484389
0.947368	12.8631	13.3098	0.487586
0.96	13.1426	13.5892	0.490434
0.972973	13.4138	13.8609	0.49281
0.986301	13.6772	14.1194	0.494399
1	13.9306	14.3802	0.495986
1.01408	14.1743	14.6134	0.496456
1.02857	14.4069	14.8484	0.497335
1.04348	14.628	15.0653	0.496834
1.05882	14.8361	15.2704	0.49623
1.07463	15.0317	15.4695	0.495469
1.09091	15.2126	15.6402	0.493586
1.10769	15.3796	15.8119	0.491274
1.125	15.5304	15.9522	0.488233
1.14286	15.6651	16.085	0.484377
1.16129	15.7825	16.2011	0.480306
1.18033	15.8826	16.2916	0.474827
1.2	15.9639	16.3823	0.469379
