# Flux/energy over surface of 0.002048 0.002048 0.002048 
#wavelength	W[flux_ref]	W[flux_inc]	W[flux_tra]
0.4	1.86568	12.174	10.2869
0.400859	1.98157	12.5561	10.5321
0.401722	2.08317	12.9444	10.8052
0.402588	2.16965	13.3385	11.1093
0.403458	2.24261	13.7386	11.4414
0.404332	2.303	14.1446	11.7953
0.40521	2.35065	14.5565	12.1676
0.406091	2.38565	14.9993	12.5592
0.406977	2.41034	15.4563	12.9715
0.407866	2.42978	15.9202	13.4051
0.408759	2.44967	16.3909	13.8567
0.409656	2.47343	16.8684	14.3209
0.410557	2.50053	17.3529	14.7936
0.411462	2.52759	17.8645	15.2746
0.412371	2.55109	18.4005	15.7682
0.413284	2.5704	18.9444	16.2783
0.414201	2.58795	19.4963	16.8076
0.415122	2.60772	20.0561	17.3543
0.416048	2.63209	20.6239	17.9156
0.416977	2.65991	21.2133	18.4886
0.41791	2.6872	21.8399	19.0733
0.418848	2.70946	22.4755	19.6746
0.41979	2.72439	23.1204	20.2977
0.420736	2.73209	23.7743	20.9471
0.421687	2.7333	24.4374	21.6241
0.422642	2.72683	25.1145	22.3295
0.423601	2.70786	25.8443	23.0648
0.424564	2.66914	26.5846	23.8353
0.425532	2.6038	27.3353	24.647
0.426504	2.50928	28.0965	25.5045
0.427481	2.38926	28.8682	26.4071
0.428462	2.2531	29.6503	27.3466
0.429448	2.11257	30.491	28.3129
0.430438	1.97873	31.35	29.2919
0.431433	1.86005	32.2209	30.2736
0.432432	1.76284	33.1038	31.2519
0.433437	1.69241	33.9987	32.2246
0.434445	1.65471	34.9054	33.1876
0.435459	1.65577	35.8644	34.1367
0.436477	1.69943	36.8576	35.0691
0.4375	1.78431	37.8644	35.9839
0.438528	1.90143	38.8847	36.888
0.43956	2.0347	39.9186	37.7979
0.440598	2.16354	40.9661	38.7354
0.44164	2.26707	42.057	39.725
0.442688	2.32885	43.2011	40.7836
0.44374	2.34047	44.3606	41.9189
0.444797	2.30337	45.5355	43.1277
0.44586	2.22875	46.7257	44.3968
0.446927	2.13574	47.9312	45.7097
0.448	2.04734	49.1684	47.0463
0.449078	1.98556	50.4817	48.3878
0.450161	1.96621	51.8123	49.7207
0.451249	1.9959	53.1601	51.0367
0.452342	2.0728	54.5253	52.3344
0.453441	2.19054	55.9078	53.6191
0.454545	2.34331	57.3076	54.8983
0.455655	2.5295	58.8088	56.1778
0.45677	2.7509	60.3301	57.4614
0.45789	3.00815	61.8708	58.7473
0.459016	3.2963	63.4308	60.0392
0.460148	3.60343	65.0104	61.3421
0.461285	3.91454	66.6093	62.6679
0.462428	4.21825	68.2994	64.031
0.463576	4.51183	70.0322	65.4413
0.46473	4.79987	71.7867	66.9008
0.46589	5.08843	73.563	68.4054
0.467056	5.37733	75.361	69.9495
0.468227	5.65821	77.1806	71.5318
0.469405	5.91905	79.0777	73.163
0.470588	6.15285	81.0442	74.855
0.471778	6.36356	83.0348	76.6114
0.472973	6.5643	85.0495	78.426
0.474174	6.7683	87.0883	80.2895
0.475382	6.97883	89.1514	82.1919
0.476596	7.18686	91.2745	84.1301
0.477816	7.37831	93.4974	86.116
0.479042	7.54479	95.7471	88.1641
0.480274	7.6918	98.0236	90.2785
0.481513	7.83551	100.327	92.4531
0.482759	7.99043	102.657	94.6714
0.48401	8.15979	105.026	96.9235
0.485269	8.33379	107.529	99.208
0.486533	8.50081	110.061	101.534
0.487805	8.66151	112.624	103.908
0.489083	8.83538	115.215	106.327
0.490368	9.05439	117.836	108.763
0.491659	9.34612	120.487	111.187
0.492958	9.72248	123.279	113.577
0.494263	10.1805	126.119	115.921
0.495575	10.7185	128.991	118.23
0.496894	11.3521	131.896	120.495
0.498221	12.1162	134.833	122.694
0.499554	13.052	137.802	124.797
0.500894	14.186	140.893	126.762
0.502242	15.518	144.064	128.575
0.503597	17.03	147.271	130.248
0.504959	18.7096	150.513	131.799
0.506329	20.5678	153.791	133.237
0.507706	22.6375	157.104	134.54
0.509091	24.9531	160.514	135.675
0.510483	27.5197	164.042	136.619
0.511883	30.3089	167.609	137.382
0.513291	33.2749	171.213	138.005
0.514706	36.3887	174.856	138.522
0.516129	39.6626	178.538	138.967
0.51756	43.1345	182.289	139.297
0.518999	46.8401	186.198	139.485
0.520446	50.7692	190.147	139.503
0.521901	54.8688	194.139	139.38
0.523364	59.0752	198.171	139.185
0.524836	63.3529	202.245	138.972
0.526316	67.7295	206.361	138.749
0.527804	72.2593	210.672	138.473
0.529301	76.985	215.028	138.097
0.530806	81.8846	219.428	137.601
0.532319	86.885	223.874	137.03
0.533842	91.9036	228.364	136.47
0.535373	96.9085	232.898	135.986
0.536913	101.939	237.598	135.581
0.538462	107.074	242.382	135.177
0.540019	112.358	247.213	134.721
0.541586	117.754	252.092	134.201
0.543162	123.158	257.019	133.695
0.544747	128.463	261.993	133.317
0.546341	133.642	267.102	133.141
0.547945	138.75	272.332	133.151
0.549558	143.883	277.613	133.265
0.551181	149.075	282.945	133.411
0.552813	154.259	288.327	133.603
0.554455	159.301	293.76	133.962
0.556107	164.08	299.294	134.618
0.557769	168.592	304.986	135.63
0.559441	172.953	310.732	136.926
0.561122	177.318	316.532	138.353
0.562814	181.789	322.385	139.763
0.564516	186.362	328.292	141.103
0.566229	190.977	334.268	142.417
0.567951	195.625	340.435	143.739
0.569685	200.446	346.658	145.001
0.571429	205.681	352.938	145.987
0.573183	211.585	359.274	146.437
0.574949	218.284	365.666	146.172
0.576725	225.725	372.115	145.184
0.578512	233.766	378.748	143.604
0.580311	242.296	385.457	141.592
0.582121	251.326	392.225	139.2
0.583942	260.943	399.052	136.374
0.585774	271.177	405.937	133.054
0.587618	281.889	412.881	129.323
0.589474	292.773	419.973	125.426
0.591341	303.518	427.171	121.673
0.59322	313.976	434.43	118.275
0.595112	324.241	441.749	115.214
0.597015	334.546	449.131	112.294
0.59893	345.049	456.573	109.299
0.600858	355.683	464.128	106.211
0.602799	366.197	471.811	103.24
0.604752	376.342	479.558	100.65
0.606717	386.079	487.368	98.5463
0.608696	395.637	495.24	96.7902
0.610687	405.33	503.176	95.073
0.612691	415.297	511.196	93.1925
0.614709	425.363	519.356	91.2407
0.61674	435.118	527.581	89.572
0.618785	444.216	535.87	88.5846
0.620843	452.63	544.224	88.3838
0.622914	460.661	552.642	88.7453
0.625	468.714	561.125	89.2645
0.6271	476.948	569.743	89.697
0.629213	485.089	578.428	90.2389
0.631342	492.635	587.178	91.3581
0.633484	499.193	595.994	93.494
0.635641	504.818	604.875	96.6985
0.637813	509.943	613.822	100.6
0.64	515.104	622.866	104.621
0.642202	520.52	631.984	108.468
0.644419	525.975	641.169	112.282
0.646651	531.078	650.42	116.36
0.648899	535.703	659.737	120.96
0.651163	540.276	669.121	125.762
0.653442	545.515	678.571	130.07
0.655738	551.914	688.09	133.376
0.658049	559.218	697.674	135.817
0.660377	566.451	707.324	138.306
0.662722	572.367	717.042	142.064
0.665083	576.283	726.825	147.885
0.667461	578.361	736.661	155.709
0.669856	579.289	746.536	164.861
0.672269	579.474	756.476	174.879
0.674699	578.326	766.482	186.28
0.677146	574.214	776.554	200.608
0.679612	565.315	786.692	219.728
0.682095	550.482	796.886	244.834
0.684597	529.614	807.064	276.133
0.687117	502.901	817.308	313.439
0.689655	469.536	827.616	357.522
0.692213	427.013	837.988	410.834
0.694789	371.964	848.426	476.601
0.697385	302.786	858.927	556.432
0.7	222.554	869.365	647.332
