# Flux/energy over surface of 0.002048 0.002048 0.002048 
#wavelength	W[flux_ref]	W[flux_inc]	W[flux_tra]
0.4	1.59749	12.174	10.6183
0.402685	1.80008	13.3827	11.5984
0.405405	1.85903	14.6489	12.8242
0.408163	1.83314	16.0763	14.2417
0.410959	1.77113	17.5703	15.8207
0.413793	1.69909	19.2501	17.5334
0.416667	1.59148	21.0067	19.428
0.41958	1.46845	22.9763	21.4892
0.422535	1.27179	25.0344	23.7873
0.425532	0.986713	27.3353	26.35
0.428571	0.612755	29.7378	29.1731
0.431655	0.286984	32.4161	32.1332
0.434783	0.185793	35.2103	35.0674
0.437956	0.257498	38.3162	38.048
0.441176	0.54133	41.5538	41.0471
0.444444	0.987523	45.1421	44.1335
0.447761	1.46572	48.8795	47.4493
0.451128	1.97607	53.0095	51.0156
0.454545	2.44306	57.3076	54.9243
0.458015	2.64962	62.0431	59.3961
0.461538	2.54374	66.9673	64.5005
0.465116	2.30308	72.3764	70.0717
0.46875	2.03116	77.9963	76.0354
0.472441	1.76041	84.151	82.3735
0.47619	1.80715	90.5401	88.7949
0.48	2.50571	97.5153	94.9889
0.483871	3.93665	104.75	100.908
0.487805	6.26464	112.624	106.39
0.491803	9.56887	120.783	111.401
0.495868	14.0701	129.634	115.708
0.5	19.6718	138.799	119.459
0.504202	26.6334	148.708	122.388
0.508475	34.7568	158.96	124.718
0.51282	44.3008	170.007	126.209
0.517241	55.0526	181.427	127.069
0.521739	67.0778	193.693	127.283
0.526316	80.3282	206.361	126.857
0.530973	94.5872	219.92	126.105
0.535714	110.098	233.912	124.686
0.540541	126.164	248.834	123.429
0.545455	143.353	264.22	121.668
0.550459	160.568	280.569	120.617
0.555556	178.481	297.41	119.537
0.560748	195.836	315.238	119.732
0.566038	213.617	333.587	120.255
0.571429	231.892	352.938	120.986
0.576923	251.457	372.835	121.231
0.582524	271.552	393.737	121.624
0.588235	291.085	415.209	123.44
0.594059	310.47	437.675	126.07
0.6	325.769	460.734	133.662
0.606061	336.037	484.757	146.977
0.612245	332.217	509.392	175.273
0.618557	305.274	534.946	227.527
0.625	241.677	561.125	317.435
0.631579	160.767	588.154	425.646
0.638298	120.447	615.82	493.958
0.645161	155.281	644.245	487.459
0.652174	188.141	673.312	483.476
0.659341	214.763	703.027	486.546
0.666667	346.583	733.384	384.565
0.674157	505.694	764.253	255.714
0.681818	611.319	795.758	180.946
0.689655	684.223	827.616	139.755
0.697674	736.661	860.098	119.457
0.705882	780.164	892.747	108.774
0.714286	816.456	926.003	105.553
0.722892	846.614	959.211	108.963
0.731707	870.276	993.004	119.11
0.740741	880.885	1026.51	142.562
0.75	871.521	1060.56	186.165
0.759494	823.161	1094.07	268.707
0.769231	768.523	1128.09	357.455
0.779221	779.168	1161.26	380.457
0.789474	791.079	1194.92	402.111
0.8	854.532	1227.43	371.585
0.810811	992.405	1260.37	266.52
0.821918	1090.77	1291.84	200.549
0.833333	1152.98	1323.69	170.381
0.84507	1181.37	1353.74	173.104
0.857143	1201.7	1384.12	183.143
0.869565	1245.3	1412.34	168.866
0.882353	1303.16	1440.84	139.47
0.895522	1345.88	1466.83	124.042
0.909091	1373.31	1493.04	122.595
0.923077	1393.12	1516.38	127.522
0.9375	1421.53	1539.9	122.216
0.952381	1461.25	1560.2	104.309
0.967742	1492.61	1580.62	92.7968
0.983607	1518.4	1597.49	85.3189
1	1535.18	1614.44	84.7136
1.01695	1552.51	1627.52	81.8152
1.03448	1569.04	1640.65	77.4221
1.05263	1585.6	1649.62	71.0719
1.07143	1596.29	1658.61	68.2887
1.09091	1604.47	1663.17	65.7785
1.11111	1610.15	1667.74	63.4773
1.13208	1614.06	1667.66	60.4889
1.15385	1615.32	1667.58	57.8581
1.17647	1612.95	1662.67	56.2727
1.2	1609.23	1657.77	53.6207
