# Flux/energy over surface of 0.002048 0.002048 0.002048 
#wavelength	W[flux_ref]	W[flux_inc]	W[flux_tra]
0.4	2.01919	12.174	10.1744
0.400859	2.1056	12.5561	10.4588
0.401722	2.17258	12.9444	10.7717
0.402588	2.21892	13.3385	11.1145
0.403458	2.24666	13.7386	11.4864
0.404332	2.26043	14.1446	11.8837
0.40521	2.26589	14.5565	12.3012
0.406091	2.26735	14.9993	12.7341
0.406977	2.26705	15.4563	13.1793
0.407866	2.26474	15.9202	13.6377
0.408759	2.25904	16.3909	14.1107
0.409656	2.24937	16.8684	14.6005
0.410557	2.237	17.3529	15.1068
0.411462	2.22487	17.8645	15.6268
0.412371	2.21643	18.4005	16.1568
0.413284	2.21385	18.9444	16.6936
0.414201	2.21792	19.4963	17.2365
0.415122	2.22773	20.0561	17.7869
0.416048	2.24257	20.6239	18.347
0.416977	2.2626	21.2133	18.9185
0.41791	2.28872	21.8399	19.5003
0.418848	2.32186	22.4755	20.0912
0.41979	2.36188	23.1204	20.6901
0.420736	2.40796	23.7743	21.2972
0.421687	2.45881	24.4374	21.9152
0.422642	2.51411	25.1145	22.5466
0.423601	2.57486	25.8443	23.1922
0.424564	2.64303	26.5846	23.85
0.425532	2.72001	27.3353	24.5191
0.426504	2.80532	28.0965	25.1968
0.427481	2.89628	28.8682	25.8866
0.428462	2.98897	29.6503	26.5926
0.429448	3.07943	30.491	27.3217
0.430438	3.1645	31.35	28.0793
0.431433	3.24175	32.2209	28.8696
0.432432	3.30825	33.1038	29.6932
0.433437	3.35984	33.9987	30.5531
0.434445	3.39112	34.9054	31.4535
0.435459	3.39691	35.8644	32.3993
0.436477	3.37448	36.8576	33.3963
0.4375	3.32424	37.8644	34.4453
0.438528	3.2507	38.8847	35.5442
0.43956	3.16017	39.9186	36.6853
0.440598	3.05933	40.9661	37.8603
0.44164	2.95333	42.057	39.0617
0.442688	2.84639	43.2011	40.2854
0.44374	2.74288	44.3606	41.5291
0.444797	2.64788	45.5355	42.7908
0.44586	2.56728	46.7257	44.0679
0.446927	2.5068	47.9312	45.3546
0.448	2.46992	49.1684	46.6456
0.449078	2.45725	50.4817	47.9387
0.450161	2.46762	51.8123	49.2352
0.451249	2.49937	53.1601	50.538
0.452342	2.55289	54.5253	51.8494
0.453441	2.6308	55.9078	53.1707
0.454545	2.73638	57.3076	54.4983
0.455655	2.87135	58.8088	55.8298
0.45677	3.03466	60.3301	57.1646
0.45789	3.22274	61.8708	58.5052
0.459016	3.4318	63.4308	59.8571
0.460148	3.66075	65.0104	61.2233
0.461285	3.91109	66.6093	62.606
0.462428	4.18556	68.2994	64.0037
0.463576	4.48462	70.0322	65.4143
0.46473	4.80414	71.7867	66.8401
0.46589	5.13639	73.563	68.2883
0.467056	5.47295	75.361	69.7697
0.468227	5.80832	77.1806	71.2912
0.469405	6.14144	79.0777	72.8559
0.470588	6.47314	81.0442	74.4641
0.471778	6.80326	83.0348	76.1167
0.472973	7.12904	85.0495	77.8117
0.474174	7.44732	87.0883	79.5545
0.475382	7.75942	89.1514	81.3438
0.476596	8.07581	91.2745	83.1722
0.477816	8.41659	93.4974	85.0211
0.479042	8.80645	95.7471	86.8642
0.480274	9.2671	98.0236	88.684
0.481513	9.81391	100.327	90.4622
0.482759	10.4552	102.657	92.1905
0.48401	11.1981	105.026	93.8647
0.485269	12.0523	107.529	95.4752
0.486533	13.0311	110.061	97.0103
0.487805	14.1456	112.624	98.4629
0.489083	15.3993	115.215	99.8261
0.490368	16.7861	117.836	101.107
0.491659	18.2935	120.487	102.318
0.492958	19.9137	123.279	103.468
0.494263	21.6477	126.119	104.558
0.495575	23.5052	128.991	105.58
0.496894	25.494	131.896	106.523
0.498221	27.6136	134.833	107.392
0.499554	29.8516	137.802	108.198
0.500894	32.1942	140.893	108.957
0.502242	34.6341	144.064	109.674
0.503597	37.18	147.271	110.344
0.504959	39.8465	150.513	110.954
0.506329	42.6461	153.791	111.489
0.507706	45.5781	157.104	111.951
0.509091	48.6255	160.514	112.355
0.510483	51.77	164.042	112.721
0.511883	55.0068	167.609	113.056
0.513291	58.3512	171.213	113.344
0.514706	61.8256	174.856	113.563
0.516129	65.4463	178.538	113.698
0.51756	69.2061	182.289	113.76
0.518999	73.0797	186.198	113.766
0.520446	77.0453	190.147	113.749
0.521901	81.0985	194.139	113.706
0.523364	85.2617	198.171	113.621
0.524836	89.5654	202.245	113.464
0.526316	94.0238	206.361	113.217
0.527804	98.6197	210.672	112.895
0.529301	103.315	215.028	112.542
0.530806	108.082	219.428	112.187
0.532319	112.918	223.874	111.83
0.533842	117.858	228.364	111.441
0.535373	122.934	232.898	110.979
0.536913	128.16	237.598	110.437
0.538462	133.506	242.382	109.837
0.540019	138.922	247.213	109.241
0.541586	144.373	252.092	108.681
0.543162	149.868	257.019	108.147
0.544747	155.46	261.993	107.598
0.546341	161.19	267.102	106.969
0.547945	167.077	272.332	106.259
0.549558	173.075	277.613	105.507
0.551181	179.132	282.945	104.772
0.552813	185.209	288.327	104.091
0.554455	191.343	293.76	103.433
0.556107	197.607	299.294	102.721
0.557769	204.072	304.986	101.877
0.559441	210.746	310.732	100.893
0.561122	217.577	316.532	99.8282
0.562814	224.489	322.385	98.7556
0.564516	231.458	328.292	97.7001
0.566229	238.539	334.268	96.6154
0.567951	245.823	340.435	95.4061
0.569685	253.361	346.658	94.0169
0.571429	261.12	352.938	92.4829
0.573183	268.96	359.274	90.9403
0.574949	276.764	365.666	89.5108
0.576725	284.489	372.115	88.2489
0.578512	292.216	378.748	87.0642
0.580311	300.071	385.457	85.8285
0.582121	308.121	392.225	84.4709
0.583942	316.307	399.052	83.0526
0.585774	324.469	405.937	81.733
0.587618	332.475	412.881	80.6534
0.589474	340.326	419.973	79.8155
0.591341	348.185	427.171	79.0508
0.59322	356.25	434.43	78.1667
0.595112	364.596	441.749	77.073
0.597015	373.103	449.131	75.8946
0.59893	381.533	456.573	74.8633
0.600858	389.727	464.128	74.151
0.602799	397.757	471.811	73.6938
0.604752	405.893	479.558	73.2086
0.606717	414.422	487.368	72.421
0.608696	423.365	495.24	71.2879
0.610687	432.426	503.176	70.1115
0.612691	441.15	511.196	69.3532
0.614709	449.259	519.356	69.2991
0.61674	456.895	527.581	69.7956
0.618785	464.511	535.87	70.4051
0.620843	472.408	544.224	70.798
0.622914	480.279	552.642	71.3123
0.625	487.023	561.125	73.0027
0.6271	491.236	569.743	77.3022
0.629213	492.088	578.428	85.0516
0.631342	490.173	587.178	95.6462
0.633484	487.735	595.994	106.818
0.635641	487.997	604.875	115.35
0.637813	493.771	613.822	118.337
0.64	506.244	622.866	114.671
0.642202	524.311	631.984	105.547
0.644419	545.181	641.169	93.7215
0.646651	565.644	650.42	82.3417
0.648899	583.475	659.737	73.7327
0.651163	598.136	669.121	68.4197
0.653442	610.531	678.571	65.4386
0.655738	622.142	688.09	63.3198
0.658049	633.997	697.674	61.0279
0.660377	646.212	707.324	58.389
0.662722	658.293	717.042	55.9603
0.665083	669.65	726.825	54.3459
0.667461	680.148	736.661	53.6086
0.669856	690.281	746.536	53.3336
0.672269	700.565	756.476	52.9418
0.674699	711.391	766.482	52.0727
0.677146	722.591	776.554	50.9101
0.679612	733.709	786.692	49.8949
0.682095	744.37	796.886	49.3743
0.684597	754.547	807.064	49.3874
0.687117	764.606	817.308	49.5792
0.689655	774.964	827.616	49.4903
0.692213	785.776	837.988	48.9075
0.694789	796.809	848.426	48.0329
0.697385	807.712	858.927	47.242
0.7	818.173	869.365	47.1511
