# Flux/energy over surface of 0.002048 0.002048 0.002048 
#wavelength	W[flux_ref]	W[flux_inc]	W[flux_tra]
0.4	1.89173	12.174	10.3224
0.400859	2.00125	12.5561	10.5742
0.401722	2.0949	12.9444	10.8583
0.402588	2.17418	13.3385	11.1738
0.403458	2.24175	13.7386	11.5141
0.404332	2.298	14.1446	11.8722
0.40521	2.34157	14.5565	12.247
0.406091	2.37166	14.9993	12.6409
0.406977	2.39096	15.4563	13.058
0.407866	2.40564	15.9202	13.4989
0.408759	2.42233	16.3909	13.9574
0.409656	2.44442	16.8684	14.4261
0.410557	2.4705	17.3529	14.9006
0.411462	2.49583	17.8645	15.3812
0.412371	2.51646	18.4005	15.8743
0.413284	2.53215	18.9444	16.3868
0.414201	2.54656	19.4963	16.9204
0.415122	2.56467	20.0561	17.4717
0.416048	2.58876	20.6239	18.0352
0.416977	2.61674	21.2133	18.6081
0.41791	2.64365	21.8399	19.1918
0.418848	2.66482	22.4755	19.7916
0.41979	2.67856	23.1204	20.4147
0.420736	2.68628	23.7743	21.0652
0.421687	2.69002	24.4374	21.7425
0.422642	2.68867	25.1145	22.4461
0.423601	2.67694	25.8443	23.1754
0.424564	2.64663	26.5846	23.937
0.425532	2.59032	27.3353	24.7386
0.426504	2.50532	28.0965	25.5859
0.427481	2.39513	28.8682	26.4805
0.428462	2.26797	29.6503	27.4155
0.429448	2.13392	30.491	28.3784
0.430438	2.00294	31.35	29.3566
0.431433	1.88355	32.2209	30.339
0.432432	1.78394	33.1038	31.3198
0.433437	1.7121	33.9987	32.294
0.434445	1.67519	34.9054	33.2579
0.435459	1.67705	35.8644	34.2093
0.436477	1.71557	36.8576	35.149
0.4375	1.78204	37.8644	36.0831
0.438528	1.86283	38.8847	37.0225
0.43956	1.94311	39.9186	37.9831
0.440598	2.0105	40.9661	38.9822
0.44164	2.05706	42.057	40.0311
0.442688	2.07885	43.2011	41.1342
0.44374	2.07518	44.3606	42.2893
0.444797	2.04859	45.5355	43.4892
0.44586	2.00748	46.7257	44.7253
0.446927	1.96801	47.9312	45.984
0.448	1.95405	49.1684	47.2464
0.449078	1.99183	50.4817	48.493
0.450161	2.10081	51.8123	49.7041
0.451249	2.28597	53.1601	50.8707
0.452342	2.53516	54.5253	52.0005
0.453441	2.82497	55.9078	53.1143
0.454545	3.13108	57.3076	54.2386
0.455655	3.43928	58.8088	55.3954
0.45677	3.74782	60.3301	56.5943
0.45789	4.06187	61.8708	57.8298
0.459016	4.38364	63.4308	59.0943
0.460148	4.70609	65.0104	60.3834
0.461285	5.01521	66.6093	61.7112
0.462428	5.29835	68.2994	63.0915
0.463576	5.55259	70.0322	64.5396
0.46473	5.78674	71.7867	66.0557
0.46589	6.01312	73.563	67.627
0.467056	6.23811	75.361	69.2403
0.468227	6.4556	77.1806	70.8896
0.469405	6.65228	79.0777	72.5846
0.470588	6.81945	81.0442	74.342
0.471778	6.96172	83.0348	76.1675
0.472973	7.09553	85.0495	78.0548
0.474174	7.23758	87.0883	79.989
0.475382	7.39176	89.1514	81.9525
0.476596	7.54483	91.2745	83.9503
0.477816	7.67725	93.4974	85.995
0.479042	7.77877	95.7471	88.1076
0.480274	7.86054	98.0236	90.289
0.481513	7.94908	100.327	92.5252
0.482759	8.06958	102.657	94.7887
0.48401	8.22884	105.026	97.0597
0.485269	8.41327	107.529	99.3359
0.486533	8.6051	110.061	101.637
0.487805	8.80312	112.624	103.977
0.489083	9.03442	115.215	106.345
0.490368	9.34432	117.836	108.704
0.491659	9.77164	120.487	111.008
0.492958	10.3296	123.279	113.226
0.494263	11.0064	126.119	115.357
0.495575	11.7864	128.991	117.421
0.496894	12.6773	131.896	119.433
0.498221	13.7154	134.833	121.37
0.499554	14.9481	137.802	123.194
0.500894	16.4037	140.893	124.854
0.502242	18.0728	144.064	126.341
0.503597	19.9197	147.271	127.679
0.504959	21.9155	150.513	128.916
0.506329	24.0678	153.791	130.068
0.507706	26.4174	157.104	131.107
0.509091	29.01	160.514	131.991
0.510483	31.8531	164.042	132.68
0.511883	34.9048	167.609	133.192
0.513291	38.0999	171.213	133.585
0.514706	41.3979	174.856	133.929
0.516129	44.8159	178.538	134.237
0.51756	48.417	182.289	134.462
0.518999	52.2573	186.198	134.54
0.520446	56.3328	190.147	134.431
0.521901	60.5735	194.139	134.174
0.523364	64.8873	198.171	133.87
0.524836	69.2275	202.245	133.596
0.526316	73.6314	206.361	133.362
0.527804	78.1897	210.672	133.093
0.529301	82.9714	215.028	132.689
0.530806	87.9602	219.428	132.121
0.532319	93.0549	223.874	131.456
0.533842	98.1372	228.364	130.822
0.535373	103.163	232.898	130.315
0.536913	108.197	237.598	129.92
0.538462	113.355	242.382	129.53
0.540019	118.718	247.213	129.026
0.541586	124.24	252.092	128.391
0.543162	129.775	257.019	127.746
0.544747	135.182	261.993	127.251
0.546341	140.421	267.102	127.012
0.547945	145.587	272.332	126.987
0.549558	150.828	277.613	127.02
0.551181	156.22	282.945	126.993
0.552813	161.679	288.327	126.923
0.554455	167.015	293.76	126.97
0.556107	172.063	299.294	127.339
0.557769	176.826	304.986	128.096
0.559441	181.48	310.732	129.122
0.561122	186.257	316.532	130.168
0.562814	191.296	322.385	131.029
0.564516	196.558	328.292	131.677
0.566229	201.903	334.268	132.235
0.567951	207.261	340.435	132.822
0.569685	212.763	346.658	133.395
0.571429	218.712	352.938	133.689
0.573183	225.408	359.274	133.381
0.574949	232.943	365.666	132.294
0.576725	241.141	372.115	130.532
0.578512	249.7	378.748	128.401
0.580311	258.407	385.457	126.182
0.582121	267.287	392.225	123.937
0.583942	276.542	399.052	121.498
0.585774	286.328	405.937	118.658
0.587618	296.546	412.881	115.425
0.589474	306.837	419.973	112.097
0.591341	316.795	427.171	109.095
0.59322	326.251	434.43	106.678
0.595112	335.404	441.749	104.736
0.597015	344.661	449.131	102.883
0.59893	354.307	456.573	100.762
0.600858	364.273	464.128	98.3384
0.602799	374.16	471.811	95.9553
0.604752	383.57	479.558	94.0523
0.606717	392.429	487.368	92.8037
0.608696	401.099	495.24	91.9493
0.610687	410.096	503.176	90.9676
0.612691	419.669	511.196	89.506
0.614709	429.546	519.356	87.7203
0.61674	439.072	527.581	86.2426
0.618785	447.681	535.87	85.6887
0.620843	455.329	544.224	86.2488
0.622914	462.515	552.642	87.4758
0.625	469.885	561.125	88.7064
0.6271	477.659	569.743	89.6122
0.629213	485.363	578.428	90.5519
0.631342	492.108	587.178	92.4058
0.633484	497.232	595.994	95.9247
0.635641	500.831	604.875	101.11
0.637813	503.71	613.822	107.253
0.64	506.753	622.866	113.388
0.642202	510.261	631.984	119.112
0.644419	513.719	641.169	124.775
0.646651	516.278	650.42	131.304
0.648899	517.588	659.737	139.175
0.651163	518.294	669.121	147.85
0.653442	519.554	678.571	156.148
0.655738	522.069	688.09	163.365
0.658049	525.134	697.674	170.079
0.660377	526.602	707.324	178.293
0.662722	523.957	717.042	190.549
0.665083	515.795	726.825	208.426
0.667461	502.279	736.661	231.863
0.669856	484.29	746.536	260.004
0.672269	461.371	756.476	293.175
0.674699	430.604	766.482	334.263
0.677146	387.121	776.554	388.045
0.679612	327.404	786.692	458.054
0.682095	253.384	796.886	542.453
0.684597	174.739	807.064	631.52
0.687117	107.622	817.308	709.051
0.689655	69.3	827.616	757.643
0.692213	71.3731	837.988	765.62
0.694789	114.767	848.426	732.098
0.697385	189.424	858.927	667.25
0.7	278.69	869.365	588.01
