# Flux/energy over surface of 0.002048 0.002048 0.002048 
#wavelength	W[flux_ref]	W[flux_inc]	W[flux_tra]
0.4	1.80022	12.174	10.3975
0.402685	2.0745	13.3827	11.3015
0.405405	2.22589	14.6489	12.4352
0.408163	2.2894	16.0763	13.7493
0.410959	2.33544	17.5703	15.2305
0.413793	2.40336	19.2501	16.7897
0.416667	2.43895	21.0067	18.5518
0.41958	2.50211	22.9763	20.4166
0.422535	2.47155	25.0344	22.55
0.425532	2.34265	27.3353	24.9577
0.428571	1.98051	29.7378	27.765
0.431655	1.53175	32.4161	30.86
0.434783	1.30744	35.2103	33.914
0.437956	1.26204	38.3162	37.0231
0.441176	1.44933	41.5538	40.1102
0.444444	1.80797	45.1421	43.2955
0.447761	2.14718	48.8795	46.742
0.451128	2.58953	53.0095	50.3811
0.454545	3.31617	57.3076	54.0286
0.458015	3.93102	62.0431	58.0995
0.461538	4.34094	66.9673	62.711
0.465116	4.51553	72.3764	67.8674
0.46875	4.56719	77.9963	73.5411
0.472441	4.51718	84.151	79.6537
0.47619	4.37883	90.5401	86.2882
0.48	4.58105	97.5153	92.9678
0.483871	5.2289	104.75	99.6719
0.487805	6.71954	112.624	105.972
0.491803	9.11508	120.783	111.886
0.495868	12.9951	129.634	116.79
0.5	18.1124	138.799	121.023
0.504202	24.979	148.708	124.026
0.508475	33.0911	158.96	126.362
0.51282	42.9452	170.007	127.545
0.517241	54.0377	181.427	128.026
0.521739	66.5114	193.693	127.827
0.526316	80.3203	206.361	126.792
0.530973	94.9485	219.92	125.737
0.535714	111.131	233.912	123.574
0.540541	127.336	248.834	122.244
0.545455	145.202	264.22	119.746
0.550459	162.368	280.569	118.791
0.555556	181.056	297.41	116.916
0.560748	199.046	315.238	116.486
0.566038	219.465	333.587	114.414
0.571429	241.48	352.938	111.372
0.576923	265.455	372.835	107.327
0.582524	290.174	393.737	103.012
0.588235	314.289	415.209	100.39
0.594059	341.127	437.675	95.4649
0.6	366.607	460.734	93.0578
0.606061	395.387	484.757	87.754
0.612245	418.798	509.392	88.9154
0.618557	444.305	534.946	88.5443
0.625	460.643	561.125	98.2595
0.631579	473.97	588.154	111.758
0.638298	469.268	615.82	143.988
0.645161	454.354	644.245	187.448
0.652174	435.173	673.312	235.6
0.659341	395.504	703.027	305.367
0.666667	278.707	733.384	452.851
0.674157	113.069	764.253	650.065
0.681818	218.696	795.758	575.115
0.689655	470.434	827.616	354.556
0.697674	615.324	860.098	241.454
0.705882	710.189	892.747	179.544
0.714286	764.334	926.003	158.456
0.722892	808.189	959.211	148.327
0.731707	834.907	993.004	155.479
0.740741	848.165	1026.51	176.298
0.75	837.456	1060.56	221.401
0.759494	785.595	1094.07	307.369
0.769231	713.992	1128.09	413.256
0.779221	680.202	1161.26	480.552
0.789474	636.951	1194.92	557.477
0.8	687.004	1227.43	539.94
0.810811	872.881	1260.37	387.004
0.821918	1011.22	1291.84	280.872
0.833333	1094.32	1323.69	230.024
0.84507	1125.06	1353.74	230.236
0.857143	1144.85	1384.12	240.886
0.869565	1196.86	1412.34	218.107
0.882353	1269.64	1440.84	173.718
0.895522	1320.69	1466.83	149.98
0.909091	1350.85	1493.04	145.581
0.923077	1371.4	1516.38	149.843
0.9375	1402	1539.9	142.007
0.952381	1448.15	1560.2	117.793
0.967742	1482.24	1580.62	103.17
0.983607	1511.3	1597.49	92.6019
1	1527.63	1614.44	92.1075
1.01695	1546.92	1627.52	87.4188
1.03448	1563.62	1640.65	82.6011
1.05263	1582.28	1649.62	74.2382
1.07143	1592.98	1658.61	71.27
1.09091	1602.1	1663.17	67.8868
1.11111	1607.98	1667.74	65.3336
1.13208	1612.29	1667.66	61.8151
1.15385	1614.16	1667.58	58.7179
1.17647	1611.51	1662.67	57.2439
1.2	1608.76	1657.77	54.0068
