# Flux/energy over surface of 0.002048 0.002048 0.002048 
#wavelength	W[flux_ref]	W[flux_inc]	W[flux_tra]
0.4	1.81267	12.174	10.3235
0.400859	1.94132	12.5561	10.5611
0.401722	2.06213	12.9444	10.8165
0.402588	2.16645	13.3385	11.1001
0.403458	2.25157	13.7386	11.4157
0.404332	2.31936	14.1446	11.7611
0.40521	2.37408	14.5565	12.1308
0.406091	2.41971	14.9993	12.5199
0.406977	2.45878	15.4563	12.9262
0.407866	2.49267	15.9202	13.3493
0.408759	2.5226	16.3909	13.7901
0.409656	2.55021	16.8684	14.2476
0.410557	2.57745	17.3529	14.7198
0.411462	2.60598	17.8645	15.2042
0.412371	2.63637	18.4005	15.6991
0.413284	2.66805	18.9444	16.2053
0.414201	2.69978	19.4963	16.725
0.415122	2.73059	20.0561	17.2609
0.416048	2.76033	20.6239	17.8143
0.416977	2.78944	21.2133	18.3846
0.41791	2.81845	21.8399	18.9705
0.418848	2.84705	22.4755	19.5718
0.41979	2.87342	23.1204	20.1901
0.420736	2.89397	23.7743	20.8299
0.421687	2.90388	24.4374	21.4971
0.422642	2.89785	25.1145	22.1979
0.423601	2.87144	25.8443	22.937
0.424564	2.82138	26.5846	23.717
0.425532	2.74652	27.3353	24.5392
0.426504	2.64776	28.0965	25.4025
0.427481	2.52826	28.8682	26.3042
0.428462	2.3933	29.6503	27.2405
0.429448	2.25045	30.491	28.2045
0.430438	2.10943	31.35	29.1871
0.431433	1.98153	32.2209	30.1778
0.432432	1.87809	33.1038	31.1651
0.433437	1.80861	33.9987	32.1402
0.434445	1.77857	34.9054	33.0978
0.435459	1.78828	35.8644	34.0391
0.436477	1.83319	36.8576	34.9689
0.4375	1.90558	37.8644	35.895
0.438528	1.997	38.8847	36.8256
0.43956	2.1005	39.9186	37.7676
0.440598	2.21129	40.9661	38.7265
0.44164	2.32628	42.057	39.7057
0.442688	2.4426	43.2011	40.709
0.44374	2.55678	44.3606	41.741
0.444797	2.66479	45.5355	42.8054
0.44586	2.76321	46.7257	43.9062
0.446927	2.85119	47.9312	45.044
0.448	2.93091	49.1684	46.2173
0.449078	3.00673	50.4817	47.4234
0.450161	3.0827	51.8123	48.6578
0.451249	3.15963	53.1601	49.9221
0.452342	3.23336	54.5253	51.2197
0.453441	3.2952	55.9078	52.5595
0.454545	3.33459	57.3076	53.9523
0.455655	3.34319	58.8088	55.4072
0.45677	3.31768	60.3301	56.9292
0.45789	3.26151	61.8708	58.5161
0.459016	3.18362	63.4308	60.1602
0.460148	3.09622	65.0104	61.8497
0.461285	3.01252	66.6093	63.5707
0.462428	2.94499	68.2994	65.3108
0.463576	2.90475	70.0322	67.0596
0.46473	2.90089	71.7867	68.8103
0.46589	2.93965	73.563	70.5574
0.467056	3.02317	75.361	72.2984
0.468227	3.14894	77.1806	74.0353
0.469405	3.31045	79.0777	75.773
0.470588	3.49992	81.0442	77.5193
0.471778	3.7105	83.0348	79.2832
0.472973	3.93787	85.0495	81.0715
0.474174	4.18025	87.0883	82.8872
0.475382	4.43634	89.1514	84.7329
0.476596	4.70345	91.2745	86.6093
0.477816	4.97747	93.4974	88.5187
0.479042	5.25374	95.7471	90.466
0.480274	5.52964	98.0236	92.4574
0.481513	5.80479	100.327	94.4954
0.482759	6.07977	102.657	96.5819
0.48401	6.35366	105.026	98.7182
0.485269	6.62233	107.529	100.905
0.486533	6.87879	110.061	103.148
0.487805	7.11645	112.624	105.455
0.489083	7.33229	115.215	107.832
0.490368	7.52812	117.836	110.279
0.491659	7.70845	120.487	112.798
0.492958	7.87721	123.279	115.381
0.494263	8.03631	126.119	118.025
0.495575	8.18781	128.991	120.725
0.496894	8.33719	131.896	123.477
0.498221	8.49699	134.833	126.275
0.499554	8.68701	137.802	129.102
0.500894	8.93069	140.893	131.935
0.502242	9.25099	144.064	134.75
0.503597	9.66773	147.271	137.522
0.504959	10.2003	150.513	140.234
0.506329	10.8719	153.791	142.862
0.507706	11.7111	157.104	145.384
0.509091	12.7495	160.514	147.772
0.510483	14.0158	164.042	149.996
0.511883	15.5287	167.609	152.033
0.513291	17.2984	171.213	153.87
0.514706	19.33	174.856	155.5
0.516129	21.6294	178.538	156.924
0.51756	24.2076	182.289	158.131
0.518999	27.0733	186.198	159.122
0.520446	30.2264	190.147	159.89
0.521901	33.6548	194.139	160.441
0.523364	37.3331	198.171	160.798
0.524836	41.2386	202.245	160.983
0.526316	45.3568	206.361	161.019
0.527804	49.6822	210.672	160.921
0.529301	54.2108	215.028	160.693
0.530806	58.9288	219.428	160.345
0.532319	63.8074	223.874	159.897
0.533842	68.8087	228.364	159.379
0.535373	73.9018	232.898	158.829
0.536913	79.0695	237.598	158.274
0.538462	84.3125	242.382	157.727
0.540019	89.6277	247.213	157.186
0.541586	94.9996	252.092	156.664
0.543162	100.392	257.019	156.184
0.544747	105.755	261.993	155.787
0.546341	111.05	267.102	155.523
0.547945	116.261	272.332	155.423
0.549558	121.384	277.613	155.501
0.551181	126.416	282.945	155.759
0.552813	131.327	288.327	156.213
0.554455	136.067	293.76	156.904
0.556107	140.575	299.294	157.886
0.557769	144.813	304.986	159.211
0.559441	148.779	310.732	160.892
0.561122	152.513	316.532	162.902
0.562814	156.071	322.385	165.187
0.564516	159.51	328.292	167.669
0.566229	162.879	334.268	170.285
0.567951	166.243	340.435	172.97
0.569685	169.703	346.658	175.634
0.571429	173.411	352.938	178.146
0.573183	177.558	359.274	180.318
0.574949	182.339	365.666	181.946
0.576725	187.937	372.115	182.833
0.578512	194.504	378.748	182.807
0.580311	202.15	385.457	181.767
0.582121	210.951	392.225	179.642
0.583942	220.918	399.052	176.444
0.585774	231.981	405.937	172.254
0.587618	243.96	412.881	167.234
0.589474	256.606	419.973	161.62
0.591341	269.635	427.171	155.677
0.59322	282.828	434.43	149.633
0.595112	296.044	441.749	143.663
0.597015	309.21	449.131	137.845
0.59893	322.279	456.573	132.239
0.600858	335.172	464.128	126.899
0.602799	347.788	471.811	121.897
0.604752	360.034	479.558	117.33
0.606717	371.876	487.368	113.232
0.608696	383.379	495.24	109.575
0.610687	394.63	503.176	106.283
0.612691	405.697	511.196	103.285
0.614709	416.554	519.356	100.58
0.61674	427.112	527.581	98.2395
0.618785	437.272	535.87	96.3459
0.620843	447.027	544.224	94.9304
0.622914	456.469	552.642	93.925
0.625	465.729	561.125	93.224
0.6271	474.892	569.743	92.7254
0.629213	483.924	578.428	92.433
0.631342	492.707	587.178	92.4503
0.633484	501.123	595.994	92.8888
0.635641	509.147	604.875	93.7492
0.637813	516.874	613.822	95.0211
0.64	524.461	622.866	96.5467
0.642202	532.022	631.984	98.2246
0.644419	539.597	641.169	99.8911
0.646651	547.195	650.42	101.633
0.648899	554.904	659.737	103.293
0.651163	562.936	669.121	104.699
0.653442	571.53	678.571	105.624
0.655738	580.896	688.09	105.887
0.658049	590.935	697.674	105.578
0.660377	601.341	707.324	104.958
0.662722	611.691	717.042	104.396
0.665083	621.74	726.825	104.222
0.667461	631.378	736.661	104.5
0.669856	640.875	746.536	105.064
0.672269	650.286	756.476	105.754
0.674699	659.64	766.482	106.564
0.677146	668.731	776.554	107.686
0.679612	677.255	786.692	109.404
0.682095	685.104	796.886	111.82
0.684597	692.451	807.064	114.819
0.687117	699.571	817.308	118.109
0.689655	706.656	827.616	121.551
0.692213	713.473	837.988	125.339
0.694789	719.58	848.426	129.885
0.697385	724.513	858.927	135.533
0.7	728.143	869.365	142.52
