# Flux/energy over surface of 0.002048 0.002048 0.002048 
#wavelength	W[flux_ref]	W[flux_inc]	W[flux_tra]
0.4	1.78996	12.174	10.3401
0.400859	1.91751	12.5561	10.5826
0.401722	2.04683	12.9444	10.8348
0.402588	2.16508	13.3385	11.1085
0.403458	2.26308	13.7386	11.412
0.404332	2.33841	14.1446	11.7481
0.40521	2.3954	14.5565	12.1139
0.406091	2.44193	14.9993	12.503
0.406977	2.48522	15.4563	12.9095
0.407866	2.5283	15.9202	13.3295
0.408759	2.57039	16.3909	13.7624
0.409656	2.60888	16.8684	14.2101
0.410557	2.64254	17.3529	14.6738
0.411462	2.67315	17.8645	15.1533
0.412371	2.70455	18.4005	15.6465
0.413284	2.74014	18.9444	16.1511
0.414201	2.78069	19.4963	16.6662
0.415122	2.82389	20.0561	17.1928
0.416048	2.86595	20.6239	17.734
0.416977	2.90418	21.2133	18.2925
0.41791	2.93825	21.8399	18.8697
0.418848	2.96952	22.4755	19.466
0.41979	2.99883	23.1204	20.081
0.420736	3.02427	23.7743	20.7171
0.421687	3.04055	24.4374	21.3784
0.422642	3.04034	25.1145	22.0716
0.423601	3.01684	25.8443	22.804
0.424564	2.96606	26.5846	23.5807
0.425532	2.88787	27.3353	24.4027
0.426504	2.78523	28.0965	25.2678
0.427481	2.6631	28.8682	26.1722
0.428462	2.52744	29.6503	27.1095
0.429448	2.38489	30.491	28.0731
0.430438	2.24364	31.35	29.0553
0.431433	2.11383	32.2209	30.0471
0.432432	2.0068	33.1038	31.0386
0.433437	1.93342	33.9987	32.0191
0.434445	1.90145	34.9054	32.9809
0.435459	1.91329	35.8644	33.9215
0.436477	1.96503	36.8576	34.8444
0.4375	2.04707	37.8644	35.7593
0.438528	2.14622	38.8847	36.6799
0.43956	2.24837	39.9186	37.6219
0.440598	2.34123	40.9661	38.5986
0.44164	2.41599	42.057	39.6186
0.442688	2.46867	43.2011	40.6863
0.44374	2.50113	44.3606	41.7992
0.444797	2.52074	45.5355	42.9506
0.44586	2.53975	46.7257	44.13
0.446927	2.5727	47.9312	45.3237
0.448	2.63346	49.1684	46.5192
0.449078	2.73169	50.4817	47.7069
0.450161	2.87073	51.8123	48.8821
0.451249	3.04714	53.1601	50.0481
0.452342	3.25228	54.5253	51.2127
0.453441	3.47467	55.9078	52.3894
0.454545	3.70148	57.3076	53.5924
0.455655	3.91905	58.8088	54.8374
0.45677	4.11235	60.3301	56.1393
0.45789	4.26549	61.8708	57.5138
0.459016	4.36317	63.4308	58.9755
0.460148	4.39433	65.0104	60.5365
0.461285	4.35513	66.6093	62.2029
0.462428	4.25044	68.2994	63.9716
0.463576	4.09349	70.0322	65.8311
0.46473	3.90271	71.7867	67.7647
0.46589	3.69893	73.563	69.7496
0.467056	3.50321	75.361	71.7642
0.468227	3.33504	77.1806	73.788
0.469405	3.2108	79.0777	75.8074
0.470588	3.14157	81.0442	77.813
0.471778	3.1314	83.0348	79.8003
0.472973	3.177	85.0495	81.7724
0.474174	3.27028	87.0883	83.7362
0.475382	3.40273	89.1514	85.7
0.476596	3.5698	91.2745	87.6702
0.477816	3.77088	93.4974	89.648
0.479042	4.00733	95.7471	91.6366
0.480274	4.27838	98.0236	93.6367
0.481513	4.57845	100.327	95.6535
0.482759	4.8991	102.657	97.691
0.48401	5.2332	105.026	99.7579
0.485269	5.57843	107.529	101.859
0.486533	5.93642	110.061	103.995
0.487805	6.30814	112.624	106.171
0.489083	6.68896	115.215	108.386
0.490368	7.06692	117.836	110.654
0.491659	7.42721	120.487	112.985
0.492958	7.75847	123.279	115.391
0.494263	8.05734	126.119	117.88
0.495575	8.32586	128.991	120.456
0.496894	8.56611	131.896	123.117
0.498221	8.77415	134.833	125.868
0.499554	8.93993	137.802	128.714
0.500894	9.05463	140.893	131.664
0.502242	9.11783	144.064	134.718
0.503597	9.1428	147.271	137.867
0.504959	9.15209	150.513	141.095
0.506329	9.16825	153.791	144.378
0.507706	9.20958	157.104	147.697
0.509091	9.2922	160.514	151.034
0.510483	9.43792	164.042	154.364
0.511883	9.68315	167.609	157.652
0.513291	10.0772	171.213	160.854
0.514706	10.6728	174.856	163.921
0.516129	11.5144	178.538	166.807
0.51756	12.6325	182.289	169.479
0.518999	14.0489	186.198	171.906
0.520446	15.7862	190.147	174.071
0.521901	17.876	194.139	175.947
0.523364	20.3498	198.171	177.505
0.524836	23.227	202.245	178.73
0.526316	26.5005	206.361	179.622
0.527804	30.14	210.672	180.206
0.529301	34.1083	215.028	180.516
0.530806	38.3786	219.428	180.582
0.532319	42.9422	223.874	180.425
0.533842	47.7924	228.364	180.056
0.535373	52.9067	232.898	179.5
0.536913	58.2359	237.598	178.799
0.538462	63.7112	242.382	178.009
0.540019	69.2711	247.213	177.195
0.541586	74.8827	252.092	176.389
0.543162	80.5435	257.019	175.615
0.544747	86.2533	261.993	174.879
0.546341	91.9864	267.102	174.203
0.547945	97.6784	272.332	173.645
0.549558	103.246	277.613	173.274
0.551181	108.62	282.945	173.157
0.552813	113.774	288.327	173.337
0.554455	118.717	293.76	173.811
0.556107	123.458	299.294	174.587
0.557769	127.971	304.986	175.685
0.559441	132.192	310.732	177.154
0.561122	136.053	316.532	179.049
0.562814	139.543	322.385	181.382
0.564516	142.732	328.292	184.093
0.566229	145.758	334.268	187.06
0.567951	148.768	340.435	190.144
0.569685	151.87	346.658	193.228
0.571429	155.129	352.938	196.227
0.573183	158.64	359.274	199.039
0.574949	162.567	365.666	201.49
0.576725	167.196	372.115	203.316
0.578512	172.876	378.748	204.187
0.580311	179.905	385.457	203.803
0.582121	188.448	392.225	201.99
0.583942	198.491	399.052	198.746
0.585774	209.893	405.937	194.195
0.587618	222.462	412.881	188.548
0.589474	236.001	419.973	182.017
0.591341	250.312	427.171	174.82
0.59322	265.15	434.43	167.205
0.595112	280.226	441.749	159.441
0.597015	295.219	449.131	151.826
0.59893	309.877	456.573	144.606
0.600858	324.083	464.128	137.911
0.602799	337.857	471.811	131.756
0.604752	351.274	479.558	126.073
0.606717	364.361	487.368	120.818
0.608696	377.079	495.24	116.027
0.610687	389.326	503.176	111.768
0.612691	401.038	511.196	108.098
0.614709	412.272	519.356	104.976
0.61674	423.175	527.581	102.292
0.618785	433.881	535.87	99.927
0.620843	444.429	544.224	97.835
0.622914	454.719	552.642	96.0608
0.625	464.642	561.125	94.7147
0.6271	474.149	569.743	93.8288
0.629213	483.341	578.428	93.3404
0.631342	492.403	587.178	93.1149
0.633484	501.439	595.994	93.0118
0.635641	510.429	604.875	93.0732
0.637813	519.178	613.822	93.4472
0.64	527.533	622.866	94.2727
0.642202	535.511	631.984	95.5627
0.644419	543.348	641.169	97.0566
0.646651	551.421	650.42	98.4928
0.648899	559.988	659.737	99.377
0.651163	569.169	669.121	99.6988
0.653442	578.803	678.571	99.6725
0.655738	588.735	688.09	99.2822
0.658049	598.912	697.674	98.6955
0.660377	609.377	707.324	97.922
0.662722	620.176	717.042	96.9035
0.665083	631.245	726.825	95.7588
0.667461	642.296	736.661	94.6954
0.669856	653.012	746.536	94.0166
0.672269	663.209	756.476	93.8945
0.674699	672.974	766.482	94.2331
0.677146	682.634	776.554	94.741
0.679612	692.467	786.692	95.1546
0.682095	702.53	796.886	95.4863
0.684597	712.447	807.064	96.0028
0.687117	721.87	817.308	97.0081
0.689655	730.674	827.616	98.647
0.692213	739.072	837.988	100.702
0.694789	747.469	848.426	102.95
0.697385	756.139	858.927	105.029
0.7	764.892	869.365	107.043
