# Flux/energy over surface of 0.002048 0.002048 0.002048 
#wavelength	W[flux_ref]	W[flux_inc]	W[flux_tra]
0.4	1.59106	12.174	10.5861
0.402685	1.80608	13.3827	11.55
0.405405	1.86415	14.6489	12.7729
0.408163	1.84667	16.0763	14.1777
0.410959	1.78078	17.5703	15.749
0.413793	1.71321	19.2501	17.4522
0.416667	1.60704	21.0067	19.3342
0.41958	1.48156	22.9763	21.395
0.422535	1.28857	25.0344	23.6871
0.425532	0.994173	27.3353	26.2601
0.428571	0.607689	29.7378	29.1071
0.431655	0.25577	32.4161	32.0995
0.434783	0.126566	35.2103	35.0643
0.437956	0.170635	38.3162	38.0773
0.441176	0.414334	41.5538	41.1163
0.444444	0.803722	45.1421	44.2555
0.447761	1.19877	48.8795	47.6511
0.451128	1.59575	53.0095	51.3278
0.454545	1.91218	57.3076	55.3884
0.458015	1.96262	62.0431	60.0229
0.461538	1.73283	66.9673	65.255
0.465116	1.4739	72.3764	70.8505
0.46875	1.26953	77.9963	76.751
0.472441	1.16546	84.151	82.9285
0.47619	1.39809	90.5401	89.1645
0.48	2.26868	97.5153	95.1904
0.483871	3.82745	104.75	100.97
0.487805	6.27211	112.624	106.335
0.491803	9.66561	120.783	111.232
0.495868	14.2523	129.634	115.46
0.5	19.9611	138.799	119.082
0.504202	26.9926	148.708	121.944
0.508475	35.2696	158.96	124.11
0.51282	44.8819	170.007	125.529
0.517241	55.8388	181.427	126.185
0.521739	67.9534	193.693	126.293
0.526316	81.4557	206.361	125.639
0.530973	95.8877	219.92	124.679
0.535714	111.694	233.912	123.025
0.540541	128.115	248.834	121.374
0.545455	145.723	264.22	119.261
0.550459	163.686	280.569	117.435
0.555556	182.385	297.41	115.612
0.560748	201.176	315.238	114.377
0.566038	220.243	333.587	113.628
0.571429	240.11	352.938	112.792
0.576923	260.737	372.835	111.948
0.582524	282.457	393.737	110.786
0.588235	303.44	415.209	111.093
0.594059	325.1	437.675	111.543
0.6	344.838	460.734	114.639
0.606061	362.065	484.757	121.079
0.612245	370.979	509.392	136.575
0.618557	367.89	534.946	164.974
0.625	341.813	561.125	217.17
0.631579	284.567	588.154	301.498
0.638298	203.304	615.82	410.756
0.645161	161.313	644.245	481.351
0.652174	155.32	673.312	516.449
0.659341	114.877	703.027	586.852
0.666667	181.912	733.384	549.995
0.674157	381.687	764.253	380.298
0.681818	542.148	795.758	250.579
0.689655	643.002	827.616	181.233
0.697674	711.589	860.098	144.857
0.705882	761.234	892.747	127.877
0.714286	803.065	926.003	119.278
0.722892	833.784	959.211	122.042
0.731707	859.275	993.003	130.437
0.740741	868.15	1026.51	155.602
0.75	857.454	1060.56	200.556
0.759494	804.382	1094.06	287.888
0.769231	744.384	1128.09	381.908
0.779221	748.122	1161.26	411.924
0.789474	753.332	1194.92	440.159
0.8	821.053	1227.43	405.452
0.810811	969.88	1260.37	289.301
0.821918	1075.63	1291.83	216.115
0.833333	1140.87	1323.69	182.731
0.84507	1170.21	1353.73	184.674
0.857143	1189.91	1384.12	195.234
0.869565	1235.84	1412.34	178.73
0.882353	1295.95	1440.84	146.985
0.895522	1340.58	1466.83	129.67
0.909091	1368.25	1493.04	128.018
0.923077	1388.29	1516.38	132.554
0.9375	1417.22	1539.9	126.809
0.952381	1458.06	1560.2	107.547
0.967742	1490.24	1580.62	95.2908
0.983607	1516.29	1597.49	87.3473
1	1533.49	1614.44	86.4618
1.01695	1550.75	1627.52	83.4171
1.03448	1567.86	1640.65	78.621
1.05263	1584.35	1649.62	72.1849
1.07143	1595.47	1658.61	69.0341
1.09091	1603.47	1663.17	66.6302
1.11111	1609.52	1667.74	64.0232
1.13208	1613.33	1667.66	61.0659
1.15385	1614.81	1667.58	58.1187
1.17647	1612.44	1662.67	56.5429
1.2	1608.79	1657.77	53.6823
