# Flux/energy over surface of 0.002048 0.002048 0.002048 
#wavelength	W[flux_ref]	W[flux_inc]	W[flux_tra]
0.4	1.99657	12.174	10.181
0.402685	2.24317	13.3827	11.1138
0.405405	2.35224	14.6489	12.2856
0.408163	2.38083	16.0763	13.6426
0.410959	2.40629	17.5703	15.1355
0.413793	2.43084	19.2501	16.7417
0.416667	2.46171	21.0067	18.4988
0.41958	2.51441	22.9763	20.3667
0.422535	2.5376	25.0344	22.439
0.425532	2.49722	27.3353	24.7391
0.428571	2.28986	29.7378	27.3932
0.431655	2.02785	32.4161	30.2949
0.434783	1.86273	35.2103	33.2926
0.437956	1.93002	38.3162	36.283
0.441176	2.17321	41.5538	39.3164
0.444444	2.40724	45.1421	42.6223
0.447761	2.89158	48.8795	45.919
0.451128	3.8134	53.0095	49.0811
0.454545	4.9455	57.3076	52.3146
0.458015	6.14715	62.0431	55.8039
0.461538	7.35792	66.9673	59.6099
0.465116	8.4989	72.3764	63.822
0.46875	9.97089	77.9963	68.0867
0.472441	11.7302	84.151	72.4147
0.47619	13.5481	90.5401	77.1254
0.48	15.3846	97.5153	82.1866
0.483871	17.2314	104.75	87.7196
0.487805	18.9126	112.624	93.8237
0.491803	20.1587	120.783	100.868
0.495868	21.5175	129.634	108.267
0.5	23.288	138.799	115.783
0.504202	26.3463	148.708	122.559
0.508475	31.1911	158.96	128.096
0.51282	38.5708	170.007	131.721
0.517241	48.3391	181.427	133.505
0.521739	60.5011	193.693	133.577
0.526316	74.5484	206.361	132.296
0.530973	90.1274	219.92	130.22
0.535714	107.002	233.912	127.373
0.540541	124.459	248.834	124.729
0.545455	142.732	264.22	121.832
0.550459	160.659	280.569	120.067
0.555556	178.776	297.41	118.762
0.560748	195.389	315.238	119.692
0.566038	211.505	333.587	121.886
0.571429	226.383	352.938	126.011
0.576923	242.571	372.835	129.723
0.582524	261.528	393.737	131.277
0.588235	285.544	415.209	128.743
0.594059	315.515	437.675	120.797
0.6	349.232	460.734	110.09
0.606061	385.125	484.757	97.7567
0.612245	418.475	509.392	88.9443
0.618557	451.103	534.946	81.4744
0.625	477.618	561.125	81.0118
0.631579	501.004	588.154	84.4225
0.638298	511.292	615.82	101.672
0.645161	516.101	644.245	125.273
0.652174	513.69	673.312	156.649
0.659341	500.822	703.027	199.425
0.666667	429.648	733.384	301.058
0.674157	356.254	764.253	405.625
0.681818	464.054	795.758	328.712
0.689655	616.759	827.616	207.759
0.697674	702.912	860.098	153.804
0.705882	765.72	892.747	124.001
0.714286	806.482	926.003	116.46
0.722892	844.242	959.211	112.426
0.731707	869.235	993.003	121.358
0.740741	889.292	1026.51	135.38
0.75	889.99	1060.56	169.042
0.759494	867.096	1094.06	226.074
0.769231	817.379	1128.09	310.098
0.779221	773.663	1161.26	387.547
0.789474	680.166	1194.92	514.778
0.8	630.337	1227.43	597.212
0.810811	780.899	1260.37	479.285
0.821918	955.343	1291.83	337.077
0.833333	1053.86	1323.69	270.692
0.84507	1093.18	1353.73	262.419
0.857143	1106.54	1384.12	279.399
0.869565	1162.52	1412.34	252.645
0.882353	1244.93	1440.84	198.615
0.895522	1304.1	1466.83	166.74
0.909091	1337.32	1493.04	159.356
0.923077	1357.34	1516.38	164.056
0.9375	1390.35	1539.9	153.93
0.952381	1438.76	1560.2	127.282
0.967742	1477.36	1580.62	108.297
0.983607	1506.22	1597.49	97.7503
1	1524.99	1614.44	94.8888
1.01695	1543.03	1627.52	91.2754
1.03448	1561.99	1640.65	84.3465
1.05263	1580.07	1649.62	76.4506
1.07143	1592.09	1658.61	72.1789
1.09091	1600.74	1663.17	69.1576
1.11111	1607.07	1667.74	66.1588
1.13208	1611.59	1667.66	62.3804
1.15385	1613.2	1667.58	59.4275
1.17647	1611.26	1662.67	57.1474
1.2	1607.68	1657.77	54.5526
