# Flux/energy over surface of 0.002048 0.002048 0.002048 
#wavelength	W[flux_ref]	W[flux_inc]	W[flux_tra]
0.4	1.5972	12.174	10.5842
0.402685	1.83931	13.3827	11.5208
0.405405	1.91867	14.6489	12.7194
0.408163	1.92261	16.0763	14.1044
0.410959	1.89609	17.5703	15.6367
0.413793	1.85331	19.2501	17.3193
0.416667	1.80101	21.0067	19.1498
0.41958	1.71218	22.9763	21.1746
0.422535	1.55936	25.0344	23.4292
0.425532	1.28971	27.3353	25.9743
0.428571	0.87832	29.7378	28.8417
0.431655	0.48035	32.4161	31.8746
0.434783	0.303837	35.2103	34.8868
0.437956	0.314729	38.3162	37.9269
0.441176	0.514733	41.5538	41.0081
0.444444	0.872784	45.1421	44.1778
0.447761	1.21013	48.8795	47.6328
0.451128	1.56276	53.0095	51.3517
0.454545	1.85942	57.3076	55.4293
0.458015	1.94002	62.0431	60.0309
0.461538	1.77544	66.9673	65.1945
0.465116	1.56595	72.3764	70.7418
0.46875	1.41935	77.9963	76.5784
0.472441	1.33822	84.151	82.7272
0.47619	1.56721	90.5401	88.9611
0.48	2.36493	97.5153	95.0511
0.483871	3.88002	104.75	100.871
0.487805	6.22267	112.624	106.334
0.491803	9.60953	120.783	111.237
0.495868	14.1095	129.634	115.54
0.5	19.8909	138.799	119.081
0.504202	26.8893	148.708	121.96
0.508475	35.28	158.96	124.004
0.51282	44.9532	170.007	125.347
0.517241	56.0041	181.427	125.903
0.521739	68.3086	193.693	125.8
0.526316	81.8113	206.361	125.134
0.530973	96.5792	219.92	123.82
0.535714	112.303	233.912	122.227
0.540541	129.223	248.834	120.074
0.545455	146.774	264.22	117.992
0.550459	165.389	280.569	115.51
0.555556	184.286	297.41	113.467
0.560748	203.895	315.238	111.436
0.566038	223.586	333.587	110.051
0.571429	243.971	352.938	108.726
0.576923	265.528	372.835	106.955
0.582524	288.256	393.737	104.795
0.588235	311.818	415.209	102.522
0.594059	334.422	437.675	102.025
0.6	357.196	460.734	102.102
0.606061	377.252	484.757	105.724
0.612245	394.819	509.392	112.595
0.618557	403.83	534.946	128.842
0.625	401.16	561.125	157.581
0.631579	375.296	588.154	210.378
0.638298	318.518	615.82	295
0.645161	259.52	644.245	382.588
0.652174	225.146	673.312	446.203
0.659341	149	703.027	552.437
0.666667	78.6213	733.384	653.519
0.674157	220.055	764.253	542.351
0.681818	446.042	795.758	346.829
0.689655	587.287	827.616	236.935
0.697674	681.923	860.098	174.452
0.705882	739.589	892.747	149.481
0.714286	788.823	926.003	133.43
0.722892	821.262	959.211	134.571
0.731707	848.328	993.004	141.371
0.740741	857.344	1026.51	166.478
0.75	844.673	1060.56	213.392
0.759494	789.934	1094.07	302.472
0.769231	723.252	1128.09	403.16
0.779221	719.459	1161.26	440.711
0.789474	713.968	1194.92	479.625
0.8	784.77	1227.43	441.78
0.810811	943.968	1260.37	315.258
0.821918	1059.4	1291.84	232.343
0.833333	1127.55	1323.69	196.095
0.84507	1158.44	1353.74	196.443
0.857143	1177.22	1384.12	207.913
0.869565	1225.6	1412.34	188.907
0.882353	1288.66	1440.84	154.223
0.895522	1335.03	1466.83	135.146
0.909091	1363.6	1493.04	132.572
0.923077	1383.12	1516.38	137.602
0.9375	1413.39	1539.9	130.501
0.952381	1454.64	1560.2	110.797
0.967742	1488.62	1580.62	96.7987
0.983607	1514.22	1597.49	89.3103
1	1532.45	1614.44	87.4166
1.01695	1549.09	1627.52	85.0328
1.03448	1567.11	1640.65	79.2668
1.05263	1583.3	1649.62	73.1443
1.07143	1594.95	1658.61	69.4024
1.09091	1602.91	1663.17	67.0801
1.11111	1609.01	1667.74	64.3042
1.13208	1613.16	1667.66	61.1411
1.15385	1614.3	1667.58	58.5738
1.17647	1612.47	1662.67	56.5438
1.2	1608.34	1657.77	54.2129
