# Flux/energy over surface of 0.002048 0.002048 0.002048 
#wavelength	W[flux_ref]	W[flux_inc]	W[flux_tra]
0.4	1.7705	12.174	10.4074
0.402685	2.04078	13.3827	11.3155
0.405405	2.19357	14.6489	12.4465
0.408163	2.24998	16.0763	13.7655
0.410959	2.29692	17.5703	15.245
0.413793	2.35482	19.2501	16.8073
0.416667	2.38503	21.0067	18.5743
0.41958	2.43667	22.9763	20.4459
0.422535	2.38979	25.0344	22.5928
0.425532	2.24294	27.3353	25.0148
0.428571	1.86434	29.7378	27.8349
0.431655	1.40969	32.4161	30.934
0.434783	1.1819	35.2103	33.9883
0.437956	1.1389	38.3162	37.0911
0.441176	1.31688	41.5538	40.1842
0.444444	1.67277	45.1421	43.3695
0.447761	2.01005	48.8795	46.8129
0.451128	2.4265	53.0095	50.4758
0.454545	3.08446	57.3076	54.1842
0.458015	3.61229	62.0431	58.3344
0.461538	3.94168	66.9673	63.0211
0.465116	4.03961	72.3764	68.2486
0.46875	4.04555	77.9963	73.9652
0.472441	3.94775	84.151	80.1164
0.47619	3.8293	90.5401	86.7275
0.48	4.08945	97.5153	93.339
0.483871	4.87322	104.75	99.9046
0.487805	6.52017	112.624	106.031
0.491803	9.10971	120.783	111.751
0.495868	13.1522	129.634	116.47
0.5	18.4022	138.799	120.568
0.504202	25.3676	148.708	123.447
0.508475	33.5085	158.96	125.74
0.51282	43.4122	170.007	126.856
0.517241	54.4513	181.427	127.37
0.521739	66.9671	193.693	127.128
0.526316	80.6861	206.361	126.138
0.530973	95.3789	219.92	125.011
0.535714	111.508	233.912	122.856
0.540541	127.827	248.834	121.431
0.545455	145.784	264.22	118.793
0.550459	163.157	280.569	117.643
0.555556	182.178	297.41	115.405
0.560748	200.454	315.238	114.694
0.566038	221.232	333.587	112.246
0.571429	242.935	352.938	109.484
0.576923	266.565	372.835	105.779
0.582524	290.484	393.737	102.22
0.588235	314.674	415.209	99.5652
0.594059	341.489	437.675	94.6091
0.6	367.003	460.734	92.2095
0.606061	394.91	484.757	87.7416
0.612245	417.498	509.392	89.7943
0.618557	442.03	534.946	90.3772
0.625	456.768	561.125	101.737
0.631579	468.113	588.154	117.24
0.638298	459.392	615.82	153.51
0.645161	441.141	644.245	200.343
0.652174	418.305	673.312	252.129
0.659341	375.531	703.027	325.071
0.666667	250.416	733.384	480.894
0.674157	97.0721	764.253	665.814
0.681818	225.286	795.758	568.132
0.689655	474.418	827.616	350.181
0.697674	616.368	860.098	239.931
0.705882	710.191	892.747	179.105
0.714286	763.917	926.003	158.359
0.722892	808.151	959.211	147.894
0.731707	834.255	993.003	155.635
0.740741	847.614	1026.51	176.385
0.75	835.634	1060.56	222.776
0.759494	782.797	1094.06	309.687
0.769231	710.498	1128.09	416.32
0.779221	680.262	1161.26	480.005
0.789474	642.558	1194.92	551.459
0.8	697.597	1227.43	528.89
0.810811	881.584	1260.37	377.915
0.821918	1016.76	1291.83	274.829
0.833333	1098.4	1323.69	225.525
0.84507	1128.74	1353.73	226.085
0.857143	1148.95	1384.12	236.41
0.869565	1200.22	1412.34	214.353
0.882353	1272.21	1440.84	170.814
0.895522	1322.34	1466.83	148.035
0.909091	1352.55	1493.04	143.623
0.923077	1372.7	1516.38	148.364
0.9375	1403.27	1539.9	140.46
0.952381	1448.78	1560.2	116.967
0.967742	1482.75	1580.62	102.333
0.983607	1511.56	1597.49	92.2006
1	1527.95	1614.44	91.5227
1.01695	1547.18	1627.52	87.0057
1.03448	1563.78	1640.65	82.2363
1.05263	1582.42	1649.62	74.0212
1.07143	1592.97	1658.61	71.1888
1.09091	1602.21	1663.17	67.7211
1.11111	1607.9	1667.74	65.3831
1.13208	1612.31	1667.66	61.7517
1.15385	1613.98	1667.58	58.9017
1.17647	1611.47	1662.67	57.1307
1.2	1608.51	1657.77	54.0954
