# Flux/energy over surface of 0.002048 0.002048 0.002048 
#wavelength	W[flux_ref]	W[flux_inc]	W[flux_tra]
0.4	1.8481	12.174	10.303
0.400859	1.96806	12.5561	10.5438
0.401722	2.07451	12.9444	10.8106
0.402588	2.16577	13.3385	11.1085
0.403458	2.24335	13.7386	11.4357
0.404332	2.30865	14.1446	11.7864
0.40521	2.36154	14.5565	12.1565
0.406091	2.40151	14.9993	12.5455
0.406977	2.43014	15.4563	12.9547
0.407866	2.45192	15.9202	13.3854
0.408759	2.47284	16.3909	13.835
0.409656	2.4973	16.8684	14.2987
0.410557	2.52609	17.3529	14.7721
0.411462	2.55615	17.8645	15.2536
0.412371	2.58344	18.4005	15.7462
0.413284	2.60606	18.9444	16.2545
0.414201	2.62541	19.4963	16.7817
0.415122	2.64545	20.0561	17.3278
0.416048	2.66945	20.6239	17.8898
0.416977	2.69769	21.2133	18.4639
0.41791	2.72706	21.8399	19.0499
0.418848	2.75283	22.4755	19.6509
0.41979	2.77108	23.1204	20.2727
0.420736	2.78014	23.7743	20.9208
0.421687	2.7799	24.4374	21.5984
0.422642	2.76951	25.1145	22.307
0.423601	2.74561	25.8443	23.0481
0.424564	2.70245	26.5846	23.8245
0.425532	2.634	27.3353	24.6411
0.426504	2.53729	28.0965	25.5014
0.427481	2.41481	28.8682	26.4055
0.428462	2.2748	29.6503	27.3479
0.429448	2.12934	30.491	28.3174
0.430438	1.99101	31.35	29.3004
0.431433	1.87028	32.2209	30.285
0.432432	1.7742	33.1038	31.264
0.433437	1.70711	33.9987	32.2341
0.434445	1.67201	34.9054	33.1948
0.435459	1.67176	35.8644	34.1456
0.436477	1.70901	36.8576	35.0842
0.4375	1.78466	37.8644	36.0087
0.438528	1.89592	38.8847	36.9205
0.43956	2.03462	39.9186	37.8267
0.440598	2.18704	40.9661	38.7422
0.44164	2.33551	42.057	39.6867
0.442688	2.46139	43.2011	40.681
0.44374	2.54905	44.3606	41.7402
0.444797	2.58986	45.5355	42.8721
0.44586	2.58428	46.7257	44.0746
0.446927	2.54202	47.9312	45.3388
0.448	2.47919	49.1684	46.6508
0.449078	2.41355	50.4817	47.9961
0.450161	2.35948	51.8123	49.3625
0.451249	2.32427	53.1601	50.742
0.452342	2.30861	54.5253	52.1322
0.453441	2.31021	55.9078	53.5333
0.454545	2.32857	57.3076	54.9473
0.455655	2.3682	58.8088	56.3732
0.45677	2.43763	60.3301	57.8062
0.45789	2.54535	61.8708	59.2409
0.459016	2.69445	63.4308	60.6699
0.460148	2.88053	65.0104	62.0936
0.461285	3.09433	66.6093	63.5188
0.462428	3.32681	68.2994	64.9561
0.463576	3.57383	70.0322	66.4155
0.46473	3.83616	71.7867	67.9018
0.46589	4.11495	73.563	69.4158
0.467056	4.40649	75.361	70.9576
0.468227	4.70038	77.1806	72.5309
0.469405	4.98392	79.0777	74.1431
0.470588	5.24924	81.0442	75.8058
0.471778	5.49843	83.0348	77.5248
0.472973	5.7415	85.0495	79.2974
0.474174	5.98899	87.0883	81.1172
0.475382	6.24332	89.1514	82.9754
0.476596	6.49624	91.2745	84.8717
0.477816	6.73459	93.4974	86.8134
0.479042	6.9508	95.7471	88.8132
0.480274	7.14865	98.0236	90.8771
0.481513	7.3407	100.327	93.0016
0.482759	7.5383	102.657	95.1775
0.48401	7.74194	105.026	97.3979
0.485269	7.94057	107.529	99.6611
0.486533	8.1206	110.061	101.977
0.487805	8.27909	112.624	104.356
0.489083	8.42974	115.215	106.796
0.490368	8.59719	117.836	109.283
0.491659	8.80397	120.487	111.792
0.492958	9.05948	123.279	114.306
0.494263	9.36227	126.119	116.812
0.495575	9.71248	128.991	119.31
0.496894	10.1251	131.896	121.795
0.498221	10.6338	134.833	124.248
0.499554	11.2793	137.802	126.635
0.500894	12.0906	140.893	128.923
0.502242	13.0765	144.064	131.087
0.503597	14.2307	147.271	133.123
0.504959	15.5512	150.513	135.038
0.506329	17.0548	153.791	136.828
0.507706	18.7762	157.104	138.479
0.509091	20.7485	160.514	139.956
0.510483	22.9796	164.042	141.237
0.511883	25.4494	167.609	142.329
0.513291	28.1232	171.213	143.25
0.514706	30.9804	174.856	144.036
0.516129	34.0317	178.538	144.697
0.51756	37.309	182.289	145.218
0.518999	40.8354	186.198	145.578
0.520446	44.5986	190.147	145.765
0.521901	48.5504	194.139	145.799
0.523364	52.6343	198.171	145.734
0.524836	56.8244	202.245	145.612
0.526316	61.1396	206.361	145.444
0.527804	65.6247	210.672	145.209
0.529301	70.3052	215.028	144.873
0.530806	75.1549	219.428	144.427
0.532319	80.1059	223.874	143.91
0.533842	85.0864	228.364	143.389
0.535373	90.072	232.898	142.916
0.536913	95.1025	237.598	142.495
0.538462	100.236	242.382	142.089
0.540019	105.502	247.213	141.651
0.541586	110.854	252.092	141.181
0.543162	116.198	257.019	140.745
0.544747	121.447	261.993	140.431
0.546341	126.579	267.102	140.295
0.547945	131.644	272.332	140.338
0.549558	136.713	277.613	140.504
0.551181	141.802	282.945	140.751
0.552813	146.839	288.327	141.106
0.554455	151.698	293.76	141.657
0.556107	156.279	299.294	142.513
0.557769	160.583	304.986	143.725
0.559441	164.706	310.732	145.247
0.561122	168.773	316.532	146.965
0.562814	172.857	322.385	148.77
0.564516	176.95	328.292	150.609
0.566229	181.016	334.268	152.489
0.567951	185.081	340.435	154.408
0.569685	189.294	346.658	156.272
0.571429	193.897	352.938	157.887
0.573183	199.131	359.274	159.014
0.574949	205.13	365.666	159.465
0.576725	211.904	372.115	159.17
0.578512	219.403	378.748	158.159
0.580311	227.608	385.457	156.479
0.582121	236.58	392.225	154.142
0.583942	246.388	399.052	151.124
0.585774	257.006	405.937	147.43
0.587618	268.233	412.881	143.202
0.589474	279.751	419.973	138.696
0.591341	291.262	427.171	134.204
0.59322	302.624	434.43	129.91
0.595112	313.9	441.749	125.839
0.597015	325.233	449.131	121.88
0.59893	336.687	456.573	117.934
0.600858	348.149	464.128	114.048
0.602799	359.385	471.811	110.38
0.604752	370.214	479.558	107.12
0.606717	380.654	487.368	104.326
0.608696	390.915	495.24	101.866
0.610687	401.236	503.176	99.5254
0.612691	411.682	511.196	97.1907
0.614709	422.072	519.356	94.9569
0.61674	432.086	527.581	93.0861
0.618785	441.503	535.87	91.8159
0.620843	450.376	544.224	91.1698
0.622914	458.991	552.642	90.9582
0.625	467.637	561.125	90.9031
0.6271	476.358	569.743	90.885
0.629213	484.915	578.428	91.0518
0.631342	492.946	587.178	91.7238
0.633484	500.243	595.994	93.1239
0.635641	506.922	604.875	95.2619
0.637813	513.325	613.822	97.8205
0.64	519.805	622.866	100.496
0.642202	526.402	631.984	103.144
0.644419	532.935	641.169	105.877
0.646651	539.189	650.42	108.877
0.648899	545.237	659.737	112.102
0.651163	551.543	669.121	115.137
0.653442	558.666	678.571	117.546
0.655738	566.878	688.09	119.021
0.658049	575.879	697.674	119.806
0.660377	584.946	707.324	120.493
0.662722	593.328	717.042	121.815
0.665083	600.749	726.825	124.13
0.667461	607.477	736.661	127.28
0.669856	613.995	746.536	130.841
0.672269	620.456	756.476	134.583
0.674699	626.464	766.482	138.856
0.677146	631.169	776.554	144.359
0.679612	633.889	786.692	151.812
0.682095	634.553	796.886	161.347
0.684597	633.591	807.064	172.638
0.687117	631.479	817.308	185.29
0.689655	627.914	827.616	199.49
0.692213	621.705	837.988	216.371
0.694789	611.184	848.426	237.459
0.697385	594.966	858.927	264.285
0.7	572.387	869.365	297.487
