# Flux/energy over surface of 0.002048 0.002048 0.002048 
#wavelength	W[flux_ref]	W[flux_inc]	W[flux_tra]
0.4	1.62504	12.174	10.5666
0.402685	1.82231	13.3827	11.5511
0.405405	1.88022	14.6489	12.7733
0.408163	1.85315	16.0763	14.1855
0.410959	1.79954	17.5703	15.7496
0.413793	1.73596	19.2501	17.4431
0.416667	1.64837	21.0067	19.3099
0.41958	1.55265	22.9763	21.3342
0.422535	1.38895	25.0344	23.596
0.425532	1.13897	27.3353	26.1264
0.428571	0.782925	29.7378	28.9367
0.431655	0.460214	32.4161	31.8995
0.434783	0.359918	35.2103	34.8344
0.437956	0.437026	38.3162	37.808
0.441176	0.734195	41.5538	40.7891
0.444444	1.21405	45.1421	43.8364
0.447761	1.74321	48.8795	47.0953
0.451128	2.34361	53.0095	50.5657
0.454545	2.95908	57.3076	54.3179
0.458015	3.36171	62.0431	58.5933
0.461538	3.44959	66.9673	63.5053
0.465116	3.30829	72.3764	68.9793
0.46875	3.02705	77.9963	74.9545
0.472441	2.61372	84.151	81.4336
0.47619	2.42376	90.5401	88.0889
0.48	2.86407	97.5153	94.5308
0.483871	4.06978	104.75	100.663
0.487805	6.19002	112.624	106.336
0.491803	9.33475	120.783	111.491
0.495868	13.6853	129.634	115.921
0.5	19.1648	138.799	119.782
0.504202	26.0047	148.708	122.801
0.508475	34.0007	158.96	125.246
0.51282	43.4402	170.007	126.819
0.517241	54.0412	181.427	127.819
0.521739	65.9681	193.693	128.124
0.526316	79.0192	206.361	127.877
0.530973	93.1392	219.92	127.263
0.535714	108.362	233.912	126.116
0.540541	124.159	248.834	125.143
0.545455	140.918	264.22	123.799
0.550459	157.579	280.569	123.315
0.555556	174.708	297.41	123.004
0.560748	190.856	315.238	124.42
0.566038	207.199	333.587	126.378
0.571429	223.573	352.938	129.017
0.576923	241.613	372.835	130.815
0.582524	260.537	393.737	132.381
0.588235	279.687	415.209	134.609
0.594059	297.131	437.675	139.168
0.6	308.494	460.734	150.738
0.606061	310.708	484.757	172.116
0.612245	292.894	509.392	214.493
0.618557	243.67	534.946	289.145
0.625	160.59	561.125	398.767
0.631579	112.852	588.154	473.859
0.638298	146.686	615.82	467.761
0.645161	217.346	644.245	425.202
0.652174	260.933	673.312	410.411
0.659341	311.834	703.027	389.077
0.666667	436.931	733.384	293.766
0.674157	560.555	764.253	200.551
0.681818	643.104	795.758	148.943
0.689655	703.259	827.616	120.603
0.697674	749.52	860.098	106.475
0.705882	789.447	892.747	99.4163
0.714286	823.824	926.003	98.0952
0.722892	853.269	959.211	102.222
0.731707	876.616	993.003	112.65
0.740741	888.218	1026.51	135.076
0.75	880.358	1060.56	177.146
0.759494	835.569	1094.06	256.102
0.769231	784.344	1128.09	341.46
0.779221	798.436	1161.26	360.999
0.789474	813.394	1194.92	379.681
0.8	873.717	1227.43	352.308
0.810811	1004.64	1260.37	254.286
0.821918	1099.01	1291.83	192.252
0.833333	1159.11	1323.69	164.193
0.84507	1187.42	1353.73	166.988
0.857143	1207.85	1384.12	176.966
0.869565	1250.29	1412.34	163.833
0.882353	1306.54	1440.84	136.007
0.895522	1348.28	1466.83	121.527
0.909091	1375.54	1493.04	120.213
0.923077	1395.22	1516.38	125.163
0.9375	1423.37	1539.9	120.054
0.952381	1462.29	1560.2	102.879
0.967742	1493.35	1580.62	91.525
0.983607	1518.76	1597.49	84.4711
1	1535.58	1614.44	83.7655
1.01695	1552.75	1627.52	81.0688
1.03448	1569.21	1640.65	76.7458
1.05263	1585.66	1649.62	70.6522
1.07143	1596.3	1658.61	67.932
1.09091	1604.49	1663.17	65.45
1.11111	1610.09	1667.74	63.2531
1.13208	1613.97	1667.66	60.2896
1.15385	1615.2	1667.58	57.7601
1.17647	1612.9	1662.67	55.9975
1.2	1609.15	1657.77	53.4922
