# Flux/energy over surface of 0.002048 0.002048 0.002048 
#wavelength	W[flux_ref]	W[flux_inc]	W[flux_tra]
0.4	1.62492	12.174	10.5464
0.402685	1.87479	13.3827	11.4795
0.405405	1.9864	14.6489	12.6452
0.408163	1.99638	16.0763	14.0178
0.410959	2.011	17.5703	15.5209
0.413793	1.99073	19.2501	17.1695
0.416667	1.97748	21.0067	18.9747
0.41958	1.93372	22.9763	20.9484
0.422535	1.80765	25.0344	23.178
0.425532	1.57503	27.3353	25.6901
0.428571	1.15349	29.7378	28.5607
0.431655	0.726094	32.4161	31.6268
0.434783	0.520985	35.2103	34.6648
0.437956	0.511962	38.3162	37.7267
0.441176	0.689112	41.5538	40.8269
0.444444	1.04099	45.1421	44.0088
0.447761	1.36373	48.8795	47.4732
0.451128	1.71426	53.0095	51.2017
0.454545	2.07859	57.3076	55.2081
0.458015	2.24457	62.0431	59.726
0.461538	2.20212	66.9673	64.7729
0.465116	2.03438	72.3764	70.2722
0.46875	1.92377	77.9963	76.0851
0.472441	1.80123	84.151	82.268
0.47619	1.95809	90.5401	88.5891
0.48	2.60876	97.5153	94.8144
0.483871	4.00847	104.75	100.767
0.487805	6.19999	112.624	106.357
0.491803	9.48905	120.783	111.387
0.495868	13.9113	129.634	115.735
0.5	19.6301	138.799	119.378
0.504202	26.6716	148.708	122.187
0.508475	34.9889	158.96	124.327
0.51282	44.8277	170.007	125.504
0.517241	55.7637	181.427	126.16
0.521739	68.3014	193.693	125.879
0.526316	81.6745	206.361	125.28
0.530973	96.6636	219.92	123.843
0.535714	112.315	233.912	122.205
0.540541	129.317	248.834	120.087
0.545455	146.943	264.22	117.81
0.550459	165.436	280.569	115.56
0.555556	184.674	297.41	113.096
0.560748	204.037	315.238	111.342
0.566038	224.503	333.587	109.173
0.571429	244.664	352.938	108.013
0.576923	267.109	372.835	105.439
0.582524	289.719	393.737	103.257
0.588235	314.759	415.209	99.6865
0.594059	338.176	437.675	98.1774
0.6	362.327	460.734	97.0902
0.606061	384.236	484.757	98.6482
0.612245	404.423	509.392	103.062
0.618557	419.409	534.946	113.181
0.625	424.334	561.125	134.373
0.631579	414.47	588.154	171.091
0.638298	375.496	615.82	237.769
0.645161	328.636	644.245	313.26
0.652174	289.569	673.312	381.433
0.659341	220.396	703.027	480.807
0.666667	89.7862	733.384	642.282
0.674157	129.904	764.253	633.005
0.681818	369.216	795.758	423.974
0.689655	547.408	827.616	277.189
0.697674	658.64	860.098	197.759
0.705882	727.094	892.747	162.255
0.714286	778.11	926.003	144.192
0.722892	815.042	959.211	141.004
0.731707	840.706	993.003	149.075
0.740741	852.113	1026.51	171.808
0.75	837.453	1060.56	220.757
0.759494	783.408	1094.06	308.99
0.769231	712.685	1128.09	413.916
0.779221	702.732	1161.26	457.4
0.789474	688.759	1194.92	505.07
0.8	759.044	1227.43	467.44
0.810811	925.805	1260.37	333.673
0.821918	1047.11	1291.83	244.528
0.833333	1118.72	1323.69	205.161
0.84507	1149.4	1353.73	205.373
0.857143	1168.84	1384.12	216.46
0.869565	1217.71	1412.34	196.763
0.882353	1283.79	1440.84	159.172
0.895522	1330.5	1466.83	139.706
0.909091	1360.23	1493.04	135.876
0.923077	1379.22	1516.38	141.678
0.9375	1410.27	1539.9	133.475
0.952381	1452.07	1560.2	113.551
0.967742	1486.65	1580.62	98.4846
0.983607	1512.73	1597.49	90.9105
1	1530.81	1614.44	88.6351
1.01695	1548	1627.52	86.0679
1.03448	1565.81	1640.65	80.2014
1.05263	1582.88	1649.62	73.5391
1.07143	1594.04	1658.61	70.0945
1.09091	1602.67	1663.17	67.2255
1.11111	1608.25	1667.74	64.9563
1.13208	1612.91	1667.66	61.1904
1.15385	1613.77	1667.58	59.0521
1.17647	1612.23	1662.67	56.4113
1.2	1607.97	1657.77	54.5353
