# Flux/energy over surface of 0.002048 0.002048 0.002048 
#wavelength	W[flux_ref]	W[flux_inc]	W[flux_tra]
0.4	1.9541	12.174	10.2312
0.400859	2.05492	12.5561	10.4989
0.401722	2.13494	12.9444	10.7976
0.402588	2.19436	13.3385	11.1276
0.403458	2.23765	13.7386	11.4845
0.404332	2.27022	14.1446	11.8622
0.40521	2.29556	14.5565	12.2572
0.406091	2.31492	14.9993	12.6691
0.406977	2.32836	15.4563	13.0988
0.407866	2.33661	15.9202	13.5462
0.408759	2.34193	16.3909	14.0091
0.409656	2.34726	16.8684	14.4849
0.410557	2.35491	17.3529	14.9708
0.411462	2.36541	17.8645	15.4661
0.412371	2.37734	18.4005	15.9728
0.413284	2.38894	18.9444	16.494
0.414201	2.39951	19.4963	17.0312
0.415122	2.40986	20.0561	17.5838
0.416048	2.42172	20.6239	18.1497
0.416977	2.4365	21.2133	18.7276
0.41791	2.45416	21.8399	19.317
0.418848	2.47331	22.4755	19.9204
0.41979	2.49198	23.1204	20.541
0.420736	2.50868	23.7743	21.181
0.421687	2.52303	24.4374	21.8417
0.422642	2.53521	25.1145	22.522
0.423601	2.54488	25.8443	23.2219
0.424564	2.54976	26.5846	23.9438
0.425532	2.54477	27.3353	24.694
0.426504	2.5223	28.0965	25.4812
0.427481	2.47373	28.8682	26.3152
0.428462	2.39156	29.6503	27.2035
0.429448	2.27271	30.491	28.1485
0.430438	2.12133	31.35	29.1451
0.431433	1.9501	32.2209	30.1806
0.432432	1.77998	33.1038	31.2343
0.433437	1.63703	33.9987	32.281
0.434445	1.54732	34.9054	33.2959
0.435459	1.53165	35.8644	34.2591
0.436477	1.60138	36.8576	35.1595
0.4375	1.75729	37.8644	35.996
0.438528	1.99114	38.8847	36.7777
0.43956	2.28984	39.9186	37.5193
0.440598	2.63886	40.9661	38.2366
0.44164	3.02521	42.057	38.9445
0.442688	3.437	43.2011	39.6548
0.44374	3.8621	44.3606	40.3791
0.444797	4.28657	45.5355	41.1307
0.44586	4.69422	46.7257	41.9258
0.446927	5.06854	47.9312	42.7818
0.448	5.39539	49.1684	43.7141
0.449078	5.66571	50.4817	44.7326
0.450161	5.87638	51.8123	45.8408
0.451249	6.02922	53.1601	47.0364
0.452342	6.12869	54.5253	48.3134
0.453441	6.18023	55.9078	49.6662
0.454545	6.18955	57.3076	51.0909
0.455655	6.16386	58.8088	52.5816
0.45677	6.11322	60.3301	54.1312
0.45789	6.05028	61.8708	55.7275
0.459016	5.9894	63.4308	57.3557
0.460148	5.94439	65.0104	59.0016
0.461285	5.92604	66.6093	60.6538
0.462428	5.94139	68.2994	62.3063
0.463576	5.99277	70.0322	63.959
0.46473	6.07697	71.7867	65.617
0.46589	6.18417	73.563	67.2925
0.467056	6.29764	75.361	69.0008
0.468227	6.39732	77.1806	70.7606
0.469405	6.46617	79.0777	72.5883
0.470588	6.4981	81.0442	74.4904
0.471778	6.50258	83.0348	76.4591
0.472973	6.50227	85.0495	78.4748
0.474174	6.52226	87.0883	80.5125
0.475382	6.5776	89.1514	82.5596
0.476596	6.66503	91.2745	84.6171
0.477816	6.76614	93.4974	86.702
0.479042	6.86128	95.7471	88.835
0.480274	6.94637	98.0236	91.0217
0.481513	7.04312	100.327	93.2429
0.482759	7.19417	102.657	95.4561
0.48401	7.44711	105.026	97.6165
0.485269	7.83635	107.529	99.687
0.486533	8.37326	110.061	101.657
0.487805	9.04841	112.624	103.54
0.489083	9.84513	115.215	105.352
0.490368	10.752	117.836	107.105
0.491659	11.7681	120.487	108.801
0.492958	12.9008	123.279	110.437
0.494263	14.1591	126.119	111.995
0.495575	15.5514	128.991	113.474
0.496894	17.0887	131.896	114.858
0.498221	18.7888	134.833	116.138
0.499554	20.6715	137.802	117.294
0.500894	22.7511	140.893	118.309
0.502242	25.0228	144.064	119.19
0.503597	27.462	147.271	119.96
0.504959	30.0355	150.513	120.651
0.506329	32.7197	153.791	121.288
0.507706	35.5173	157.104	121.875
0.509091	38.452	160.514	122.384
0.510483	41.5534	164.042	122.788
0.511883	44.8364	167.609	123.069
0.513291	48.2874	171.213	123.243
0.514706	51.8759	174.856	123.339
0.516129	55.582	178.538	123.381
0.51756	59.4071	182.289	123.367
0.518999	63.3726	186.198	123.273
0.520446	67.4997	190.147	123.085
0.521901	71.7878	194.139	122.799
0.523364	76.2056	198.171	122.442
0.524836	80.714	202.245	122.056
0.526316	85.2937	206.361	121.671
0.527804	89.9631	210.672	121.265
0.529301	94.7639	215.028	120.798
0.530806	99.7252	219.428	120.233
0.532319	104.838	223.874	119.588
0.533842	110.05	228.364	118.904
0.535373	115.31	232.898	118.235
0.536913	120.593	237.598	117.615
0.538462	125.923	242.382	117.026
0.540019	131.356	247.213	116.406
0.541586	136.924	252.092	115.714
0.543162	142.605	257.019	114.978
0.544747	148.335	261.993	114.259
0.546341	154.049	267.102	113.625
0.547945	159.73	272.332	113.097
0.549558	165.423	277.613	112.631
0.551181	171.197	282.945	112.164
0.552813	177.088	288.327	111.658
0.554455	183.06	293.76	111.136
0.556107	189.038	299.294	110.683
0.557769	194.971	304.986	110.346
0.559441	200.895	310.732	110.098
0.561122	206.926	316.532	109.821
0.562814	213.208	322.385	109.376
0.564516	219.822	328.292	108.672
0.566229	226.755	334.268	107.72
0.567951	233.925	340.435	106.604
0.569685	241.271	346.658	105.389
0.571429	248.8	352.938	104.069
0.573183	256.597	359.274	102.566
0.574949	264.719	365.666	100.816
0.576725	273.131	372.115	98.8484
0.578512	281.686	378.748	96.8116
0.580311	290.201	385.457	94.8884
0.582121	298.576	392.225	93.1849
0.583942	306.851	399.052	91.6636
0.585774	315.166	405.937	90.187
0.587618	323.632	412.881	88.6381
0.589474	332.22	419.973	87.0447
0.591341	340.774	427.171	85.5549
0.59322	349.12	434.43	84.3477
0.595112	357.22	441.749	83.4705
0.597015	365.216	449.131	82.7912
0.59893	373.347	456.573	82.0583
0.600858	381.762	464.128	81.1217
0.602799	390.398	471.811	80.0399
0.604752	399.017	479.558	79.0485
0.606717	407.407	487.368	78.3518
0.608696	415.554	495.24	77.9962
0.610687	423.664	503.176	77.7587
0.612691	432.012	511.196	77.3679
0.614709	440.632	519.356	76.7757
0.61674	449.241	527.581	76.2776
0.618785	457.323	535.87	76.3688
0.620843	464.484	544.224	77.4732
0.622914	470.659	552.642	79.6457
0.625	476.09	561.125	82.6373
0.6271	480.948	569.743	86.2969
0.629213	484.871	578.428	90.9724
0.631342	486.79	587.178	97.7269
0.633484	485.304	595.994	107.955
0.635641	479.481	604.875	122.627
0.637813	469.542	613.822	141.514
0.64	457.115	622.866	163.021
0.642202	444.738	631.984	184.549
0.644419	434.888	641.169	203.63
0.646651	429.168	650.42	218.639
0.648899	428.026	659.737	229.076
0.651163	431.217	669.121	235.19
0.653442	438.615	678.571	237.19
0.655738	450.638	688.09	234.652
0.658049	468.075	697.674	226.73
0.660377	491.36	707.324	212.985
0.662722	519.796	717.042	194.151
0.665083	551.206	726.825	172.357
0.667461	582.705	736.661	150.591
0.669856	611.555	746.536	131.534
0.672269	636.339	756.476	116.621
0.674699	657.149	766.482	105.761
0.677146	675.147	776.554	97.7713
0.679612	691.643	786.692	91.3127
0.682095	707.42	796.886	85.6777
0.684597	722.445	807.064	80.8563
0.687117	736.453	817.308	77.1439
0.689655	749.258	827.616	74.6194
0.692213	761.155	837.988	73.1236
0.694789	772.692	848.426	71.9832
0.697385	784.298	858.927	70.8124
0.7	796.006	869.365	69.598
