# Flux/energy over surface of 0.002048 0.002048 0.002048 
#wavelength	W[flux_ref]	W[flux_inc]	W[flux_tra]
0.4	1.79756	12.174	10.3348
0.400859	1.92862	12.5561	10.5723
0.401722	2.05645	12.9444	10.8224
0.402588	2.16846	13.3385	11.0988
0.403458	2.25825	13.7386	11.409
0.404332	2.32698	14.1446	11.7528
0.40521	2.38093	14.5565	12.1236
0.406091	2.42743	14.9993	12.5138
0.406977	2.47089	15.4563	12.9182
0.407866	2.5118	15.9202	13.3365
0.408759	2.54833	16.3909	13.7715
0.409656	2.57952	16.8684	14.2251
0.410557	2.60687	17.3529	14.6964
0.411462	2.63414	17.8645	15.1823
0.412371	2.66499	18.4005	15.678
0.413284	2.70069	18.9444	16.1822
0.414201	2.73936	19.4963	16.6966
0.415122	2.77753	20.0561	17.2256
0.416048	2.81254	20.6239	17.7731
0.416977	2.84397	21.2133	18.3399
0.41791	2.87358	21.8399	18.9244
0.418848	2.90329	22.4755	19.5247
0.41979	2.93272	23.1204	20.1405
0.420736	2.95824	23.7743	20.7756
0.421687	2.97324	24.4374	21.4373
0.422642	2.97061	25.1145	22.133
0.423601	2.94475	25.8443	22.8696
0.424564	2.89318	26.5846	23.6498
0.425532	2.8162	27.3353	24.473
0.426504	2.7162	28.0965	25.337
0.427481	2.59685	28.8682	26.2386
0.428462	2.46291	29.6503	27.1732
0.429448	2.32094	30.491	28.1358
0.430438	2.17967	31.35	29.1186
0.431433	2.05024	32.2209	30.1108
0.432432	1.94466	33.1038	31.1011
0.433437	1.87356	33.9987	32.079
0.434445	1.84364	34.9054	33.0374
0.435459	1.85585	35.8644	33.9763
0.436477	1.90544	36.8576	34.9009
0.4375	1.98311	37.8644	35.821
0.438528	2.07733	38.8847	36.7484
0.43956	2.17712	39.9186	37.6946
0.440598	2.27382	40.9661	38.6678
0.44164	2.36222	42.057	39.6738
0.442688	2.44093	43.2011	40.7142
0.44374	2.51201	44.3606	41.7882
0.444797	2.58025	45.5355	42.8925
0.44586	2.65178	46.7257	44.0208
0.446927	2.73309	47.9312	45.1664
0.448	2.82963	49.1684	46.3254
0.449078	2.94429	50.4817	47.4941
0.450161	3.07697	51.8123	48.6731
0.451249	3.22412	53.1601	49.8663
0.452342	3.37918	54.5253	51.0813
0.453441	3.53236	55.9078	52.3289
0.454545	3.67151	57.3076	53.6222
0.455655	3.78325	58.8088	54.9741
0.45677	3.85469	60.3301	56.3976
0.45789	3.87629	61.8708	57.9032
0.459016	3.84439	63.4308	59.4961
0.460148	3.76267	65.0104	61.1749
0.461285	3.64144	66.6093	62.9292
0.462428	3.49569	68.2994	64.745
0.463576	3.34254	70.0322	66.6058
0.46473	3.1988	71.7867	68.4944
0.46589	3.08006	73.563	70.396
0.467056	2.99966	75.361	72.2978
0.468227	2.96755	77.1806	74.1895
0.469405	2.98896	79.0777	76.0667
0.470588	3.06278	81.0442	77.9308
0.471778	3.18229	83.0348	79.7882
0.472973	3.33783	85.0495	81.6486
0.474174	3.52095	87.0883	83.522
0.475382	3.72728	89.1514	85.4143
0.476596	3.95651	91.2745	87.3257
0.477816	4.20944	93.4974	89.2566
0.479042	4.48436	95.7471	91.2073
0.480274	4.77555	98.0236	93.1846
0.481513	5.07504	100.327	95.198
0.482759	5.37691	102.657	97.2541
0.48401	5.67947	105.026	99.357
0.485269	5.9845	107.529	101.505
0.486533	6.29279	110.061	103.696
0.487805	6.5999	112.624	105.933
0.489083	6.89571	115.215	108.231
0.490368	7.16853	117.836	110.601
0.491659	7.41087	120.487	113.052
0.492958	7.62311	123.279	115.586
0.494263	7.81085	126.119	118.196
0.495575	7.97939	128.991	120.879
0.496894	8.12903	131.896	123.633
0.498221	8.25691	134.833	126.461
0.499554	8.36202	137.802	129.367
0.500894	8.4539	140.893	132.344
0.502242	8.55313	144.064	135.372
0.503597	8.68739	147.271	138.424
0.504959	8.88393	150.513	141.472
0.506329	9.16393	153.791	144.493
0.507706	9.54598	157.104	147.471
0.509091	10.0533	160.514	150.382
0.510483	10.7202	164.042	153.197
0.511883	11.5893	167.609	155.872
0.513291	12.7018	171.213	158.366
0.514706	14.086	174.856	160.647
0.516129	15.7557	178.538	162.701
0.51756	17.7161	182.289	164.527
0.518999	19.9746	186.198	166.117
0.520446	22.5474	190.147	167.454
0.521901	25.4528	194.139	168.526
0.523364	28.6972	198.171	169.319
0.524836	32.265	202.245	169.845
0.526316	36.1219	206.361	170.143
0.527804	40.2301	210.672	170.256
0.529301	44.5679	215.028	170.206
0.530806	49.1301	219.428	170
0.532319	53.9194	223.874	169.632
0.533842	58.9225	228.364	169.117
0.535373	64.0964	232.898	168.491
0.536913	69.3847	237.598	167.816
0.538462	74.7377	242.382	167.151
0.540019	80.1314	247.213	166.517
0.541586	85.5708	252.092	165.913
0.543162	91.0665	257.019	165.324
0.544747	96.6002	261.993	164.767
0.546341	102.118	267.102	164.294
0.547945	107.542	272.332	163.984
0.549558	112.816	277.613	163.903
0.551181	117.917	282.945	164.08
0.552813	122.856	288.327	164.496
0.554455	127.648	293.76	165.137
0.556107	132.267	299.294	166.026
0.557769	136.644	304.986	167.23
0.559441	140.701	310.732	168.831
0.561122	144.41	316.532	170.868
0.562814	147.818	322.385	173.294
0.564516	151.04	328.292	175.991
0.566229	154.205	334.268	178.828
0.567951	157.405	340.435	181.7
0.569685	160.699	346.658	184.554
0.571429	164.15	352.938	187.332
0.573183	167.885	359.274	189.909
0.574949	172.133	365.666	192.06
0.576725	177.193	372.115	193.487
0.578512	183.343	378.748	193.897
0.580311	190.764	385.457	193.098
0.582121	199.51	392.225	191.046
0.583942	209.525	399.052	187.805
0.585774	220.702	405.937	183.489
0.587618	232.913	412.881	178.227
0.589474	246.004	419.973	172.169
0.591341	259.754	427.171	165.523
0.59322	273.885	434.43	158.575
0.595112	288.094	441.749	151.629
0.597015	302.131	449.131	144.944
0.59893	315.881	456.573	138.644
0.600858	329.339	464.128	132.73
0.602799	342.536	471.811	127.164
0.604752	355.478	479.558	121.933
0.606717	368.082	487.368	117.116
0.608696	380.243	495.24	112.826
0.610687	391.914	503.176	109.118
0.612691	403.149	511.196	105.947
0.614709	414.086	519.356	103.166
0.61674	424.844	527.581	100.646
0.618785	435.428	535.87	98.3773
0.620843	445.734	544.224	96.456
0.622914	455.632	552.642	95.0244
0.625	465.103	561.125	94.11
0.6271	474.254	569.743	93.6143
0.629213	483.278	578.428	93.3302
0.631342	492.289	587.178	93.1406
0.633484	501.238	595.994	93.0739
0.635641	509.942	604.875	93.3
0.637813	518.209	613.822	94.0686
0.64	526.035	622.866	95.3689
0.642202	533.617	631.984	96.9789
0.644419	541.281	641.169	98.5706
0.646651	549.29	650.42	99.8803
0.648899	557.739	659.737	100.858
0.651163	566.553	669.121	101.527
0.653442	575.654	678.571	102.008
0.655738	585.095	688.09	102.204
0.658049	594.995	697.674	102.009
0.660377	605.467	707.324	101.332
0.662722	616.359	717.042	100.293
0.665083	627.31	726.825	99.2415
0.667461	637.923	736.661	98.5893
0.669856	647.967	746.536	98.5804
0.672269	657.51	756.476	99.1116
0.674699	666.941	766.482	99.8358
0.677146	676.514	776.554	100.47
0.679612	686.264	786.692	101.002
0.682095	695.798	796.886	101.762
0.684597	704.763	807.064	103.147
0.687117	713.023	817.308	105.307
0.689655	720.788	827.616	108.002
0.692213	728.499	837.988	110.812
0.694789	736.417	848.426	113.463
0.697385	744.335	858.927	116.177
0.7	751.638	869.365	119.559
