# Flux/energy over surface of 0.002048 0.002048 0.002048 
#wavelength	W[flux_ref]	W[flux_inc]	W[flux_tra]
0.4	1.58891	12.174	10.5875
0.402685	1.79702	13.3827	11.5572
0.405405	1.85537	14.6489	12.7788
0.408163	1.83146	16.0763	14.1886
0.410959	1.76456	17.5703	15.7639
0.413793	1.69186	19.2501	17.4714
0.416667	1.57959	21.0067	19.3622
0.41958	1.45135	22.9763	21.4242
0.422535	1.25113	25.0344	23.7242
0.425532	0.95771	27.3353	26.295
0.428571	0.575748	29.7378	29.131
0.431655	0.235617	32.4161	32.1072
0.434783	0.118538	35.2103	35.0576
0.437956	0.172812	38.3162	38.0537
0.441176	0.431134	41.5538	41.0743
0.444444	0.838478	45.1421	44.1935
0.447761	1.2604	48.8795	47.5617
0.451128	1.68819	53.0095	51.2061
0.454545	2.04299	57.3076	55.2233
0.458015	2.12283	62.0431	59.8225
0.461538	1.91264	66.9673	65.0311
0.465116	1.64605	72.3764	70.6276
0.46875	1.41862	77.9963	76.5433
0.472441	1.27036	84.151	82.7542
0.47619	1.46426	90.5401	89.0232
0.48	2.30104	97.5153	95.0721
0.483871	3.84035	104.75	100.87
0.487805	6.26509	112.624	106.246
0.491803	9.64231	120.783	111.164
0.495868	14.2156	129.634	115.388
0.5	19.8857	138.799	119.047
0.504202	26.9066	148.708	121.898
0.508475	35.1186	158.96	124.121
0.51282	44.7242	170.007	125.54
0.517241	55.5979	181.427	126.266
0.521739	67.6962	193.693	126.393
0.526316	81.1067	206.361	125.814
0.530973	95.4857	219.92	124.922
0.535714	111.208	233.912	123.31
0.540541	127.509	248.834	121.798
0.545455	145.028	264.22	119.731
0.550459	162.732	280.569	118.178
0.555556	181.278	297.41	116.49
0.560748	199.604	315.238	115.718
0.566038	218.41	333.587	115.227
0.571429	237.816	352.938	114.844
0.576923	258.244	372.835	114.237
0.582524	279.366	393.737	113.644
0.588235	299.791	415.209	114.559
0.594059	320.787	437.675	115.633
0.6	339.316	460.734	119.993
0.606061	354.862	484.757	128.09
0.612245	360.163	509.392	147.25
0.618557	350.747	534.946	181.963
0.625	313.514	561.125	245.371
0.631579	244.731	588.154	341.307
0.638298	165.352	615.82	448.701
0.645161	144.559	644.245	498.058
0.652174	152.679	673.312	518.971
0.659341	135.498	703.027	566.031
0.666667	236.492	733.384	495.067
0.674157	428.497	764.253	333.214
0.681818	567.921	795.758	224.607
0.689655	658.315	827.616	165.82
0.697674	720.299	860.098	136.013
0.705882	767.95	892.747	121.101
0.714286	807.443	926.003	114.752
0.722892	838.24	959.211	117.472
0.731707	862.907	993.004	126.625
0.740741	872.472	1026.51	151.119
0.75	862.025	1060.56	195.788
0.759494	810.405	1094.07	281.65
0.769231	752.129	1128.09	374.007
0.779221	758.361	1161.26	401.482
0.789474	766.175	1194.92	427.218
0.8	832.371	1227.43	394.003
0.810811	977.553	1260.37	281.622
0.821918	1080.62	1291.84	211.012
0.833333	1145.02	1323.69	178.564
0.84507	1173.94	1353.74	180.859
0.857143	1193.99	1384.12	191.137
0.869565	1238.98	1412.34	175.553
0.882353	1298.38	1440.84	144.527
0.895522	1342.33	1466.83	127.886
0.909091	1369.94	1493.04	126.259
0.923077	1389.85	1516.38	130.971
0.9375	1418.56	1539.9	125.362
0.952381	1459.08	1560.2	106.468
0.967742	1490.92	1580.62	94.4914
0.983607	1516.98	1597.49	86.62
1	1533.9	1614.44	85.9199
1.01695	1551.3	1627.52	82.8443
1.03448	1568.1	1640.65	78.2416
1.05263	1584.75	1649.62	71.7677
1.07143	1595.62	1658.61	68.8133
1.09091	1603.74	1663.17	66.3666
1.11111	1609.55	1667.74	63.8576
1.13208	1613.44	1667.66	60.8669
1.15385	1614.86	1667.58	58.0372
1.17647	1612.46	1662.67	56.4415
1.2	1608.87	1657.77	53.6543
