# Flux/energy over surface of 0.002048 0.002048 0.002048 
#wavelength	W[flux_ref]	W[flux_inc]	W[flux_tra]
0.4	1.81633	12.174	10.3212
0.400859	1.9478	12.5561	10.5625
0.401722	2.07317	12.9444	10.8189
0.402588	2.17886	13.3385	11.1012
0.403458	2.25842	13.7386	11.4164
0.404332	2.31479	14.1446	11.7649
0.40521	2.35748	14.5565	12.1417
0.406091	2.39642	14.9993	12.5388
0.406977	2.43655	15.4563	12.9499
0.407866	2.47615	15.9202	13.3728
0.408759	2.51022	16.3909	13.8097
0.409656	2.53555	16.8684	14.2638
0.410557	2.55404	17.3529	14.7368
0.411462	2.57189	17.8645	15.2265
0.412371	2.59548	18.4005	15.7287
0.413284	2.62698	18.9444	16.2402
0.414201	2.66296	19.4963	16.7611
0.415122	2.69712	20.0561	17.2949
0.416048	2.72464	20.6239	17.8466
0.416977	2.7456	21.2133	18.4184
0.41791	2.76425	21.8399	19.0102
0.418848	2.78525	22.4755	19.619
0.41979	2.80954	23.1204	20.2436
0.420736	2.83233	23.7743	20.8866
0.421687	2.8449	24.4374	21.5536
0.422642	2.83858	25.1145	22.2536
0.423601	2.80826	25.8443	22.9932
0.424564	2.75327	26.5846	23.7757
0.425532	2.6758	27.3353	24.6011
0.426504	2.57809	28.0965	25.4667
0.427481	2.46188	28.8682	26.3693
0.428462	2.32943	29.6503	27.3051
0.429448	2.18631	30.491	28.2687
0.430438	2.04292	31.35	29.2516
0.431433	1.91323	32.2209	30.2424
0.432432	1.811	33.1038	31.2289
0.433437	1.74539	33.9987	32.2024
0.434445	1.71866	34.9054	33.1592
0.435459	1.72736	35.8644	34.1014
0.436477	1.76609	36.8576	35.0347
0.4375	1.83124	37.8644	35.9648
0.438528	1.92197	38.8847	36.8942
0.43956	2.03824	39.9186	37.8248
0.440598	2.1766	40.9661	38.7597
0.44164	2.32736	42.057	39.7066
0.442688	2.47538	43.2011	40.6794
0.44374	2.60446	44.3606	41.6935
0.444797	2.70301	45.5355	42.7632
0.44586	2.76789	46.7257	43.8942
0.446927	2.80399	47.9312	45.0833
0.448	2.8207	49.1684	46.3218
0.449078	2.82678	50.4817	47.5996
0.450161	2.82755	51.8123	48.9098
0.451249	2.82413	53.1601	50.2521
0.452342	2.81591	54.5253	51.6285
0.453441	2.80235	55.9078	53.0434
0.454545	2.78357	57.3076	54.4972
0.455655	2.7608	58.8088	55.9896
0.45677	2.73605	60.3301	57.5164
0.45789	2.71374	61.8708	59.0714
0.459016	2.70223	63.4308	60.6482
0.460148	2.71368	65.0104	62.2383
0.461285	2.76085	66.6093	63.8314
0.462428	2.85202	68.2994	65.4205
0.463576	2.98657	70.0322	67.0032
0.46473	3.15578	71.7867	68.5846
0.46589	3.34803	73.563	70.1755
0.467056	3.55531	75.361	71.7858
0.468227	3.77716	77.1806	73.42
0.469405	4.01735	79.0777	75.0801
0.470588	4.278	81.0442	76.7641
0.471778	4.55329	83.0348	78.4735
0.472973	4.83053	85.0495	80.2158
0.474174	5.09717	87.0883	82.0018
0.475382	5.34939	89.1514	83.8402
0.476596	5.59464	91.2745	85.7297
0.477816	5.84565	93.4974	87.6644
0.479042	6.10997	95.7471	89.6366
0.480274	6.38256	98.0236	91.6452
0.481513	6.64778	100.327	93.6988
0.482759	6.88979	102.657	95.8115
0.48401	7.10449	105.026	97.9934
0.485269	7.30152	107.529	100.244
0.486533	7.49679	110.061	102.554
0.487805	7.6988	112.624	104.911
0.489083	7.90176	115.215	107.318
0.490368	8.09087	117.836	109.78
0.491659	8.25652	120.487	112.304
0.492958	8.40731	123.279	114.892
0.494263	8.5704	126.119	117.529
0.495575	8.77728	128.991	120.185
0.496894	9.04918	131.896	122.836
0.498221	9.39031	134.833	125.468
0.499554	9.79814	137.802	128.08
0.500894	10.2817	140.893	130.661
0.502242	10.8715	144.064	133.195
0.503597	11.6141	147.271	135.645
0.504959	12.5512	150.513	137.97
0.506329	13.7017	153.791	140.142
0.507706	15.0595	157.104	142.159
0.509091	16.6128	160.514	144.024
0.510483	18.3667	164.042	145.74
0.511883	20.3515	167.609	147.295
0.513291	22.6074	171.213	148.657
0.514706	25.1559	174.856	149.798
0.516129	27.982	178.538	150.718
0.51756	31.0417	182.289	151.449
0.518999	34.2952	186.198	152.03
0.520446	37.7338	190.147	152.484
0.521901	41.3853	194.139	152.801
0.523364	45.2855	198.171	152.955
0.524836	49.4411	202.245	152.93
0.526316	53.807	206.361	152.751
0.527804	58.3098	210.672	152.472
0.529301	62.8953	215.028	152.151
0.530806	67.5609	219.428	151.817
0.532319	72.3513	223.874	151.446
0.533842	77.3157	228.364	150.998
0.535373	82.4514	232.898	150.46
0.536913	87.6941	237.598	149.87
0.538462	92.9475	242.382	149.301
0.540019	98.1502	247.213	148.825
0.541586	103.311	252.092	148.465
0.543162	108.498	257.019	148.181
0.544747	113.768	261.993	147.926
0.546341	119.103	267.102	147.688
0.547945	124.407	272.332	147.534
0.549558	129.555	277.613	147.561
0.551181	134.473	282.945	147.868
0.552813	139.187	288.327	148.465
0.554455	143.776	293.76	149.302
0.556107	148.305	299.294	150.318
0.557769	152.74	304.986	151.512
0.559441	156.974	310.732	152.957
0.561122	160.899	316.532	154.739
0.562814	164.512	322.385	156.888
0.564516	167.954	328.292	159.306
0.566229	171.448	334.268	161.801
0.567951	175.179	340.435	164.184
0.569685	179.228	346.658	166.327
0.571429	183.579	352.938	168.206
0.573183	188.241	359.274	169.801
0.574949	193.352	365.666	171.009
0.576725	199.188	372.115	171.606
0.578512	206.058	378.748	171.3
0.580311	214.139	385.457	169.895
0.582121	223.382	392.225	167.396
0.583942	233.548	399.052	163.996
0.585774	244.362	405.937	159.97
0.587618	255.653	412.881	155.543
0.589474	267.39	419.973	150.79
0.591341	279.586	427.171	145.723
0.59322	292.16	434.43	140.392
0.595112	304.868	441.749	134.981
0.597015	317.396	449.131	129.764
0.59893	329.526	456.573	124.99
0.600858	341.261	464.128	120.692
0.602799	352.792	471.811	116.747
0.604752	364.328	479.558	112.943
0.606717	375.913	487.368	109.208
0.608696	387.359	495.24	105.645
0.610687	398.405	503.176	102.498
0.612691	408.895	511.196	99.9384
0.614709	418.93	519.356	97.943
0.61674	428.781	527.581	96.2838
0.618785	438.664	535.87	94.7459
0.620843	448.578	544.224	93.2765
0.622914	458.262	552.642	92.0634
0.625	467.422	561.125	91.381
0.6271	475.947	569.743	91.3708
0.629213	484.042	578.428	91.9215
0.631342	492.057	587.178	92.6975
0.633484	500.218	595.994	93.4875
0.635641	508.424	604.875	94.279
0.637813	516.289	613.822	95.4108
0.64	523.487	622.866	97.2411
0.642202	530.004	631.984	99.761
0.644419	536.275	641.169	102.676
0.646651	542.946	650.42	105.365
0.648899	550.426	659.737	107.33
0.651163	558.737	669.121	108.567
0.653442	567.495	678.571	109.329
0.655738	576.302	688.09	110.023
0.658049	585.043	697.674	110.863
0.660377	593.965	707.324	111.662
0.662722	603.378	717.042	112.132
0.665083	613.278	726.825	112.244
0.667461	623.153	736.661	112.359
0.669856	632.398	746.536	113.135
0.672269	640.479	756.476	115.043
0.674699	647.484	766.482	118.073
0.677146	654.052	776.554	121.706
0.679612	660.746	786.692	125.352
0.682095	667.67	796.886	128.863
0.684597	674.201	807.064	132.757
0.687117	679.419	817.308	137.944
0.689655	682.721	827.616	145.035
0.692213	684.238	837.988	153.942
0.694789	684.649	848.426	164.123
0.697385	684.512	858.927	174.974
0.7	683.497	869.365	186.77
