# Flux/energy over surface of 0.002048 0.002048 0.002048 
#wavelength	W[flux_ref]	W[flux_inc]	W[flux_tra]
0.4	1.91665	12.174	10.2479
0.402685	2.18848	13.3827	11.1524
0.405405	2.33125	14.6489	12.2949
0.408163	2.39441	16.0763	13.6116
0.410959	2.43802	17.5703	15.0927
0.413793	2.50747	19.2501	16.6504
0.416667	2.55044	21.0067	18.4011
0.41958	2.63403	22.9763	20.2412
0.422535	2.64666	25.0344	22.3265
0.425532	2.58602	27.3353	24.6565
0.428571	2.28931	29.7378	27.3955
0.431655	1.9037	32.4161	30.4251
0.434783	1.70534	35.2103	33.4505
0.437956	1.67908	38.3162	36.539
0.441176	1.91569	41.5538	39.5762
0.444444	2.26135	45.1421	42.7748
0.447761	2.60215	48.8795	46.219
0.451128	3.21513	53.0095	49.6907
0.454545	4.23772	57.3076	53.0421
0.458015	5.16985	62.0431	56.7951
0.461538	5.91484	66.9673	61.0756
0.465116	6.41867	72.3764	65.9086
0.46875	6.83685	77.9963	71.224
0.472441	7.23271	84.151	76.9015
0.47619	7.40922	90.5401	83.2308
0.48	7.66925	97.5153	89.8597
0.483871	7.98384	104.75	96.8981
0.487805	8.79305	112.624	103.876
0.491803	10.2012	120.783	110.758
0.495868	13.0302	129.634	116.711
0.5	17.2475	138.799	121.823
0.504202	23.3893	148.708	125.554
0.508475	31.1027	158.96	128.266
0.51282	40.6989	170.007	129.706
0.517241	51.8171	181.427	130.165
0.521739	64.331	193.693	129.914
0.526316	78.316	206.361	128.706
0.530973	93.0357	219.92	127.522
0.535714	109.292	233.912	125.306
0.540541	125.446	248.834	123.996
0.545455	142.996	264.22	121.838
0.550459	159.591	280.569	121.42
0.555556	176.96	297.41	120.878
0.560748	193.043	315.238	122.35
0.566038	210.651	333.587	123.109
0.571429	230.751	352.938	122.012
0.576923	255.02	372.835	117.676
0.582524	283.089	393.737	110.076
0.588235	311.183	415.209	103.463
0.594059	340.639	437.675	95.9827
0.6	366.884	460.734	92.7738
0.606061	396.027	484.757	87.1875
0.612245	421.571	509.392	86.2101
0.618557	450.349	534.946	82.6116
0.625	471.482	561.125	87.5345
0.631579	490.734	588.154	95.1262
0.638298	495.756	615.82	117.639
0.645161	491.814	644.245	150.063
0.652174	481.406	673.312	189.453
0.659341	451.499	703.027	249.383
0.666667	353.69	733.384	377.795
0.674157	192.349	764.253	570.621
0.681818	275.682	795.758	518.105
0.689655	508.497	827.616	316.66
0.697674	639.966	860.098	217.187
0.705882	726.717	892.747	163.398
0.714286	777.208	926.003	146.082
0.722892	818.962	959.211	138.03
0.731707	845.568	993.003	145.348
0.740741	860.401	1026.51	164.62
0.75	853.952	1060.56	205.483
0.759494	810.713	1094.06	282.881
0.769231	744.253	1128.09	383.642
0.779221	700.337	1161.26	461.176
0.789474	632.826	1194.92	562.351
0.8	654.735	1227.43	573.021
0.810811	840.299	1260.37	420.3
0.821918	991.614	1291.83	301.266
0.833333	1079.99	1323.69	245.082
0.84507	1112.76	1353.73	243.348
0.857143	1130.6	1384.12	255.883
0.869565	1184.78	1412.34	230.964
0.882353	1261	1440.84	183.112
0.895522	1315.03	1466.83	156.409
0.909091	1345.84	1493.04	151.409
0.923077	1366.62	1516.38	155.341
0.9375	1397.73	1539.9	147.076
0.952381	1445.21	1560.2	121.378
0.967742	1480.4	1580.62	105.707
0.983607	1509.88	1597.49	94.6158
1	1526.69	1614.44	93.6261
1.01695	1545.9	1627.52	88.8659
1.03448	1563.16	1640.65	83.54
1.05263	1581.75	1649.62	75.1582
1.07143	1592.83	1658.61	71.8678
1.09091	1601.7	1663.17	68.582
1.11111	1607.82	1667.74	65.7519
1.13208	1611.95	1667.66	62.2978
1.15385	1613.98	1667.58	58.9324
1.17647	1611.29	1662.67	57.3827
1.2	1608.53	1657.77	53.9683
