# Flux/energy over surface of 0.002048 0.002048 0.002048 
#wavelength	W[flux_ref]	W[flux_inc]	W[flux_tra]
0.4	1.74028	12.174	10.4538
0.402685	2.0054	13.3827	11.3712
0.405405	2.15692	14.6489	12.5047
0.408163	2.20293	16.0763	13.8348
0.410959	2.24954	17.5703	15.3181
0.413793	2.2943	19.2501	16.8925
0.416667	2.31865	21.0067	18.6686
0.41958	2.35603	22.9763	20.5535
0.422535	2.29214	25.0344	22.7198
0.425532	2.12814	27.3353	25.1613
0.428571	1.73505	29.7378	27.9972
0.431655	1.27872	32.4161	31.0995
0.434783	1.04979	35.2103	34.1573
0.437956	1.01071	38.3162	37.2593
0.441176	1.18169	41.5538	40.3616
0.444444	1.53532	45.1421	43.5517
0.447761	1.86944	48.8795	47.0015
0.451128	2.2643	53.0095	50.692
0.454545	2.85722	57.3076	54.4664
0.458015	3.30184	62.0431	58.7023
0.461538	3.55423	66.9673	63.4653
0.465116	3.57918	72.3764	68.7652
0.46875	3.5481	77.9963	74.518
0.472441	3.41643	84.151	80.7025
0.47619	3.33716	90.5401	87.2747
0.48	3.66428	97.5153	93.8163
0.483871	4.58706	104.75	100.254
0.487805	6.37202	112.624	106.24
0.491803	9.13765	120.783	111.796
0.495868	13.3049	129.634	116.388
0.5	18.6662	138.799	120.386
0.504202	25.6978	148.708	123.19
0.508475	33.8566	158.96	125.465
0.51282	43.7967	170.007	126.531
0.517241	54.7762	181.427	127.094
0.521739	67.3446	193.693	126.789
0.526316	80.9599	206.361	125.87
0.530973	95.7333	219.92	124.668
0.535714	111.771	233.912	122.56
0.540541	128.216	248.834	121.018
0.545455	146.187	264.22	118.319
0.550459	163.755	280.569	116.986
0.555556	183.036	297.41	114.442
0.560748	201.546	315.238	113.497
0.566038	222.568	333.587	110.782
0.571429	243.848	352.938	108.423
0.576923	267.213	372.835	104.989
0.582524	290.547	393.737	101.964
0.588235	315.104	415.209	98.9661
0.594059	341.656	437.675	94.2102
0.6	367.055	460.734	91.9551
0.606061	393.944	484.757	88.4387
0.612245	415.916	509.392	91.1367
0.618557	439.346	534.946	92.7605
0.625	452.419	561.125	105.81
0.631579	461.318	588.154	123.748
0.638298	447.813	615.82	164.821
0.645161	425.466	644.245	215.807
0.652174	398.384	673.312	271.855
0.659341	351.892	703.027	348.595
0.666667	218.158	733.384	513.08
0.674157	85.303	764.253	677.427
0.681818	240.716	795.758	552.324
0.689655	483.393	827.616	340.835
0.697674	620.753	860.098	235.089
0.705882	711.936	892.747	176.966
0.714286	764.754	926.003	157.054
0.722892	808.769	959.211	146.867
0.731707	834.147	993.004	155.281
0.740741	847.697	1026.51	175.835
0.75	834.511	1060.56	223.437
0.759494	781.167	1094.07	310.857
0.769231	708.437	1128.09	417.982
0.779221	682.184	1161.26	477.619
0.789474	649.874	1194.92	543.719
0.8	709.365	1227.43	516.591
0.810811	890.942	1260.37	368.095
0.821918	1023.1	1291.84	267.947
0.833333	1103.04	1323.69	220.47
0.84507	1133	1353.74	221.329
0.857143	1153.38	1384.12	231.564
0.869565	1203.84	1412.34	210.267
0.882353	1274.97	1440.84	167.649
0.895522	1324.16	1466.83	145.846
0.909091	1354.47	1493.04	141.401
0.923077	1374.36	1516.38	146.515
0.9375	1405.15	1539.9	138.437
0.952381	1450.01	1560.2	115.727
0.967742	1484.07	1580.62	101.039
0.983607	1512.5	1597.49	91.4374
1	1529.05	1614.44	90.6011
1.01695	1548.12	1627.52	86.4538
1.03448	1564.71	1640.65	81.6284
1.05263	1583.23	1649.62	73.6173
1.07143	1593.57	1658.61	70.9024
1.09091	1602.79	1663.17	67.4381
1.11111	1608.24	1667.74	65.2989
1.13208	1612.74	1667.66	61.5551
1.15385	1614.13	1667.58	58.9975
1.17647	1611.79	1662.67	56.9798
1.2	1608.6	1657.77	54.2251
