# Flux/energy over surface of 0.002048 0.002048 0.002048 
#wavelength	W[flux_ref]	W[flux_inc]	W[flux_tra]
0.4	1.91667	12.174	10.2836
0.400859	2.01697	12.5561	10.5471
0.401722	2.10255	12.9444	10.8419
0.402588	2.17608	13.3385	11.1641
0.403458	2.23889	13.7386	11.5084
0.404332	2.28951	14.1446	11.869
0.40521	2.32516	14.5565	12.2481
0.406091	2.34582	14.9993	12.651
0.406977	2.3569	15.4563	13.0779
0.407866	2.36644	15.9202	13.5266
0.408759	2.38121	16.3909	13.9882
0.409656	2.40304	16.8684	14.4549
0.410557	2.42774	17.3529	14.9256
0.411462	2.44881	17.8645	15.4078
0.412371	2.46273	18.4005	15.9057
0.413284	2.4716	18.9444	16.4261
0.414201	2.48152	19.4963	16.9658
0.415122	2.49874	20.0561	17.5194
0.416048	2.5245	20.6239	18.0798
0.416977	2.55453	21.2133	18.6465
0.41791	2.58184	21.8399	19.2258
0.418848	2.60135	22.4755	19.8253
0.41979	2.61225	23.1204	20.4515
0.420736	2.61922	23.7743	21.1037
0.421687	2.62654	24.4374	21.7793
0.422642	2.63476	25.1145	22.4721
0.423601	2.63819	25.8443	23.1846
0.424564	2.62641	26.5846	23.9252
0.425532	2.58869	27.3353	24.7064
0.426504	2.52007	28.0965	25.5384
0.427481	2.42264	28.8682	26.4222
0.428462	2.30589	29.6503	27.3498
0.429448	2.18245	30.491	28.3042
0.430438	2.06271	31.35	29.2716
0.431433	1.95385	32.2209	30.2445
0.432432	1.85857	33.1038	31.2207
0.433437	1.77713	33.9987	32.207
0.434445	1.70957	34.9054	33.2038
0.435459	1.65858	35.8644	34.2093
0.436477	1.62899	36.8576	35.2168
0.4375	1.62732	37.8644	36.2147
0.438528	1.66051	38.8847	37.1964
0.43956	1.73335	39.9186	38.1622
0.440598	1.84621	40.9661	39.1131
0.44164	1.99346	42.057	40.0616
0.442688	2.16311	43.2011	41.0192
0.44374	2.33959	44.3606	41.9957
0.444797	2.50826	45.5355	43.0023
0.44586	2.66244	46.7257	44.0439
0.446927	2.80765	47.9312	45.1201
0.448	2.96055	49.1684	46.2191
0.449078	3.14168	50.4817	47.3256
0.450161	3.36651	51.8123	48.4254
0.451249	3.63646	53.1601	49.5132
0.452342	3.93705	54.5253	50.5947
0.453441	4.24722	55.9078	51.6886
0.454545	4.54802	57.3076	52.8196
0.455655	4.83237	58.8088	54.0031
0.45677	5.10274	60.3301	55.2429
0.45789	5.36676	61.8708	56.5311
0.459016	5.62459	63.4308	57.8585
0.460148	5.86605	65.0104	59.2286
0.461285	6.0761	66.6093	60.6524
0.462428	6.24489	68.2994	62.1466
0.463576	6.37687	70.0322	63.7206
0.46473	6.48863	71.7867	65.3611
0.46589	6.59993	73.563	67.0506
0.467056	6.71984	75.361	68.7703
0.468227	6.84241	77.1806	70.5128
0.469405	6.95469	79.0777	72.2935
0.470588	7.04677	81.0442	74.1263
0.471778	7.12249	83.0348	76.0266
0.472973	7.19677	85.0495	77.9773
0.474174	7.28132	87.0883	79.9744
0.475382	7.37454	89.1514	82.0008
0.476596	7.46128	91.2745	84.0626
0.477816	7.52335	93.4974	86.1797
0.479042	7.55944	95.7471	88.3604
0.480274	7.59053	98.0236	90.6008
0.481513	7.65116	100.327	92.8717
0.482759	7.7717	102.657	95.1397
0.48401	7.95842	105.026	97.3792
0.485269	8.19943	107.529	99.5978
0.486533	8.47886	110.061	101.813
0.487805	8.8007	112.624	104.036
0.489083	9.19321	115.215	106.253
0.490368	9.69969	117.836	108.421
0.491659	10.352	120.487	110.499
0.492958	11.1537	123.279	112.472
0.494263	12.0889	126.119	114.342
0.495575	13.1439	128.991	116.134
0.496894	14.3314	131.896	117.857
0.498221	15.691	134.833	119.486
0.499554	17.2638	137.802	120.974
0.500894	19.0625	140.893	122.291
0.502242	21.0622	144.064	123.447
0.503597	23.2164	147.271	124.478
0.504959	25.4975	150.513	125.436
0.506329	27.9189	153.791	126.328
0.507706	30.5292	157.104	127.126
0.509091	33.3708	160.514	127.768
0.510483	36.4403	164.042	128.229
0.511883	39.6849	167.609	128.548
0.513291	43.0407	171.213	128.779
0.514706	46.4779	174.856	128.991
0.516129	50.0307	178.538	129.184
0.51756	53.7702	182.289	129.294
0.518999	57.7447	186.198	129.25
0.520446	61.9398	190.147	129.026
0.521901	66.2712	194.139	128.683
0.523364	70.6488	198.171	128.321
0.524836	75.0484	202.245	128.006
0.526316	79.5259	206.361	127.724
0.527804	84.1757	210.672	127.385
0.529301	89.0574	215.028	126.896
0.530806	94.1245	219.428	126.253
0.532319	99.2686	223.874	125.538
0.533842	104.382	228.364	124.886
0.535373	109.453	232.898	124.361
0.536913	114.567	237.598	123.921
0.538462	119.849	242.382	123.434
0.540019	125.352	247.213	122.803
0.541586	131.007	252.092	122.046
0.543162	136.655	257.019	121.298
0.544747	142.163	261.993	120.726
0.546341	147.54	267.102	120.384
0.547945	152.903	272.332	120.203
0.549558	158.406	277.613	120.01
0.551181	164.093	282.945	119.698
0.552813	169.85	288.327	119.332
0.554455	175.478	293.76	119.092
0.556107	180.848	299.294	119.157
0.557769	186.019	304.986	119.535
0.559441	191.21	310.732	120.065
0.561122	196.648	316.532	120.473
0.562814	202.427	322.385	120.598
0.564516	208.449	328.292	120.47
0.566229	214.56	334.268	120.251
0.567951	220.709	340.435	120.063
0.569685	227.059	346.658	119.822
0.571429	233.902	352.938	119.258
0.573183	241.461	359.274	118.106
0.574949	249.708	365.666	116.306
0.576725	258.353	372.115	114.087
0.578512	267.054	378.748	111.817
0.580311	275.641	385.457	109.74
0.582121	284.231	392.225	107.823
0.583942	293.094	399.052	105.811
0.585774	302.387	405.937	103.485
0.587618	311.968	412.881	100.892
0.589474	321.45	419.973	98.3576
0.591341	330.463	427.171	96.3058
0.59322	338.958	434.43	94.8753
0.595112	347.254	441.749	93.8257
0.597015	355.799	449.131	92.7085
0.59893	364.825	456.573	91.2114
0.600858	374.142	464.128	89.4171
0.602799	383.277	471.811	87.7753
0.604752	391.855	479.558	86.6971
0.606717	399.935	487.368	86.2529
0.608696	408.005	495.24	86.0236
0.610687	416.617	503.176	85.4268
0.612691	425.893	511.196	84.2268
0.614709	435.378	519.356	82.8044
0.61674	444.3	527.581	81.9021
0.618785	452.126	535.87	82.1343
0.620843	458.983	544.224	83.4898
0.622914	465.517	552.642	85.3907
0.625	472.343	561.125	87.1745
0.6271	479.394	569.743	88.7719
0.629213	485.841	578.428	90.9141
0.631342	490.535	587.178	94.7886
0.633484	492.806	595.994	101.141
0.635641	492.954	604.875	109.797
0.637813	492.005	613.822	119.775
0.64	490.828	622.866	130.112
0.642202	489.453	631.984	140.667
0.644419	487.012	641.169	152.213
0.646651	482.544	650.42	165.785
0.648899	475.942	659.737	181.57
0.651163	468.151	669.121	198.697
0.653442	460.142	678.571	216.23
0.655738	451.247	688.09	234.807
0.658049	438.115	697.674	257.62
0.660377	415.798	707.324	289.566
0.662722	380.633	717.042	334.377
0.665083	333.836	726.825	390.962
0.667461	283.365	736.661	451.395
0.669856	242.445	746.536	502.412
0.672269	224.802	756.476	530.12
0.674699	238.969	766.482	525.892
0.677146	284.283	776.554	490.356
0.679612	351.236	786.692	433.139
0.682095	425.63	796.886	368.608
0.684597	494.526	807.064	309.8
0.687117	550.726	817.308	263.847
0.689655	593.899	827.616	230.953
0.692213	628.146	837.988	206.898
0.694789	658.177	848.426	187.026
0.697385	686.306	858.927	169.149
0.7	712.151	869.365	153.704
